=~=~=~=~=~=~=~=~=~=~=~= PuTTY log 2025.03.26 20:14:29 =~=~=~=~=~=~=~=~=~=~=~=
Choisissez la methode :
1 - Chronoamperometrie
2 - Voltammetrie cyclique
Methode selectionnee : Voltammetrie cyclique
Entrez E1 (en Volts) :
Entrez E2 (en Volts) :
Entrez la vitesse de balayage (en V/s) :
Entrez le nombre de cycles :
Parametres enregistres.
E1 = -1.00 V, E2 = 1.00 V, Vitesse = 0.50 V/s
Cycles = 2.00
Entrez le facteur d'affichage (valeur par défaut = 1, valeur utilisée pour les mesures = 4) :
Facteur d'affichage choisi : 1
Entrez 'ok' pour commencer l'expérience.
Debut
Temps (s) tension_theo (mV) tension_exp (mV)
0.0039;1000.00;1000.00
0.0078;998.04;998.04
0.0117;996.09;996.09
0.0156;994.13;996.09
0.0196;992.18;992.18
0.0235;990.22;992.18
0.0274;988.27;990.22
0.0313;986.31;988.27
0.0352;984.36;984.36
0.0391;982.40;984.36
0.0430;980.45;982.40
0.0469;978.49;980.45
0.0508;976.54;980.45
0.0547;974.58;976.54
0.0587;972.63;974.58
0.0626;970.67;972.63
0.0665;968.72;970.67
0.0704;966.76;968.72
0.0743;964.81;966.76
0.0782;962.85;964.81
0.0821;960.90;962.85
0.0860;958.94;960.90
0.0899;956.99;958.94
0.0938;955.03;956.99
0.0978;953.08;955.03
0.1017;951.12;953.08
0.1056;949.17;951.12
0.1095;947.21;949.17
0.1134;945.26;949.17
0.1173;943.30;945.26
0.1212;941.35;943.30
0.1251;939.39;941.35
0.1290;937.44;941.35
0.1329;935.48;937.44
0.1369;933.53;935.48
0.1408;931.57;933.53
0.1447;929.62;933.53
0.1486;927.66;929.62
0.1525;925.71;927.66
0.1564;923.75;925.71
0.1603;921.80;925.71
0.1642;919.84;923.75
0.1681;917.89;921.80
0.1720;915.93;917.89
0.1760;913.98;917.89
0.1799;912.02;913.98
0.1838;910.07;912.02
0.1877;908.11;912.02
0.1916;906.16;910.07
0.1955;904.20;908.11
0.1994;902.25;906.16
0.2033;900.29;904.20
0.2072;898.34;902.25
0.2111;896.38;900.29
0.2151;894.43;898.34
0.2190;892.47;896.38
0.2229;890.52;894.43
0.2268;888.56;894.43
0.2307;886.61;890.52
0.2346;884.65;888.56
0.2385;882.70;886.61
0.2424;880.74;884.65
0.2463;878.79;882.70
0.2502;876.83;880.74
0.2542;874.88;878.79
0.2581;872.92;876.83
0.2620;870.97;874.88
0.2659;869.01;872.92
0.2698;867.06;870.97
0.2737;865.10;869.01
0.2776;863.15;867.06
0.2815;861.19;867.06
0.2854;859.24;863.15
0.2893;857.28;863.15
0.2933;855.33;859.24
0.2972;853.37;857.28
0.3011;851.42;855.33
0.3050;849.46;853.37
0.3089;847.51;851.42
0.3128;845.55;851.42
0.3167;843.60;847.51
0.3206;841.64;847.51
0.3245;839.69;843.60
0.3284;837.73;843.60
0.3324;835.78;841.64
0.3363;833.82;837.73
0.3402;831.87;837.73
0.3441;829.91;835.78
0.3480;827.96;835.78
0.3519;826.00;831.87
0.3558;824.05;829.91
0.3597;822.09;827.96
0.3636;820.14;826.00
0.3675;818.18;824.05
0.3715;816.23;822.09
0.3754;814.27;820.14
0.3793;812.32;818.18
0.3832;810.36;816.23
0.3871;808.41;814.27
0.3910;806.45;812.32
0.3949;804.50;808.41
0.3988;802.54;808.41
0.4027;800.59;806.45
0.4066;798.63;804.50
0.4106;796.68;804.50
0.4145;794.72;800.59
0.4184;792.77;798.63
0.4223;790.81;796.68
0.4262;788.86;794.72
0.4301;786.90;792.77
0.4340;784.95;790.81
0.4379;782.99;788.86
0.4418;781.04;786.90
0.4457;779.08;786.90
0.4497;777.13;782.99
0.4536;775.17;782.99
0.4575;773.22;779.08
0.4614;771.26;779.08
0.4653;769.31;777.13
0.4692;767.35;777.13
0.4731;765.40;773.22
0.4770;763.44;771.26
0.4809;761.49;769.31
0.4848;759.53;765.40
0.4888;757.58;765.40
0.4927;755.62;763.44
0.4966;753.67;761.49
0.5005;751.71;757.58
0.5044;749.76;757.58
0.5083;747.80;755.62
0.5122;745.85;753.67
0.5161;743.89;749.76
0.5200;741.94;749.76
0.5239;739.98;745.85
0.5279;738.03;745.85
0.5318;736.07;743.89
0.5357;734.12;741.94
0.5396;732.16;739.98
0.5435;730.21;738.03
0.5474;728.25;736.07
0.5513;726.30;734.12
0.5552;724.34;732.16
0.5591;722.39;730.21
0.5630;720.43;726.30
0.5670;718.48;726.30
0.5709;716.52;726.30
0.5748;714.57;722.39
0.5787;712.61;718.48
0.5826;710.65;718.48
0.5865;708.70;718.48
0.5904;706.74;714.57
0.5943;704.79;712.61
0.5982;702.83;708.70
0.6022;700.88;708.70
0.6061;698.92;706.74
0.6100;696.97;704.79
0.6139;695.01;704.79
0.6178;693.06;702.83
0.6217;691.10;700.88
0.6256;689.15;698.92
0.6295;687.19;696.97
0.6334;685.24;693.06
0.6373;683.28;691.10
0.6413;681.33;689.15
0.6452;679.37;687.19
0.6491;677.42;687.19
0.6530;675.46;683.28
0.6569;673.51;683.28
0.6608;671.55;679.37
0.6647;669.60;677.42
0.6686;667.64;675.46
0.6725;665.69;675.46
0.6764;663.73;673.51
0.6804;661.78;671.55
0.6843;659.82;667.64
0.6882;657.87;667.64
0.6921;655.91;663.73
0.6960;653.96;663.73
0.6999;652.00;661.78
0.7038;650.05;659.82
0.7077;648.09;657.87
0.7116;646.14;655.91
0.7155;644.18;653.96
0.7195;642.23;653.96
0.7234;640.27;650.05
0.7273;638.32;648.09
0.7312;636.36;646.14
0.7351;634.41;644.18
0.7390;632.45;642.23
0.7429;630.50;640.27
0.7468;628.54;638.32
0.7507;626.59;636.36
0.7546;624.63;634.41
0.7586;622.68;632.45
0.7625;620.72;632.45
0.7664;618.77;628.54
0.7703;616.81;626.59
0.7742;614.86;624.63
0.7781;612.90;624.63
0.7820;610.95;620.72
0.7859;608.99;618.77
0.7898;607.04;616.81
0.7937;605.08;616.81
0.7977;603.13;612.90
0.8016;601.17;612.90
0.8055;599.22;608.99
0.8094;597.26;608.99
0.8133;595.31;605.08
0.8172;593.35;605.08
0.8211;591.40;601.17
0.8250;589.44;601.17
0.8289;587.49;597.26
0.8328;585.53;597.26
0.8368;583.58;595.31
0.8407;581.62;593.35
0.8446;579.67;589.44
0.8485;577.71;589.44
0.8524;575.76;587.49
0.8563;573.80;585.53
0.8602;571.85;583.58
0.8641;569.89;581.62
0.8680;567.94;581.62
0.8719;565.98;577.71
0.8759;564.03;575.76
0.8798;562.07;573.80
0.8837;560.12;571.85
0.8876;558.16;569.89
0.8915;556.21;569.89
0.8954;554.25;565.98
0.8993;552.30;565.98
0.9032;550.34;562.07
0.9071;548.39;562.07
0.9110;546.43;558.16
0.9150;544.48;556.21
0.9189;542.52;554.25
0.9228;540.57;554.25
0.9267;538.61;550.34
0.9306;536.66;550.34
0.9345;534.70;546.43
0.9384;532.75;546.43
0.9423;530.79;544.48
0.9462;528.84;542.52
0.9501;526.88;540.57
0.9541;524.93;538.61
0.9580;522.97;536.66
0.9619;521.02;534.70
0.9658;519.06;530.79
0.9697;517.11;528.84
0.9736;515.15;528.84
0.9775;513.20;526.88
0.9814;511.24;524.93
0.9853;509.29;522.97
0.9892;507.33;521.02
0.9932;505.38;519.06
0.9971;503.42;517.11
1.0010;501.47;515.15
1.0049;499.51;513.20
1.0088;497.56;511.24
1.0127;495.60;509.29
1.0166;493.65;507.33
1.0205;491.69;505.38
1.0244;489.74;503.42
1.0283;487.78;501.47
1.0323;485.83;499.51
1.0362;483.87;497.56
1.0401;481.92;495.60
1.0440;479.96;493.65
1.0479;478.01;491.69
1.0518;476.05;489.74
1.0557;474.10;487.78
1.0596;472.14;485.83
1.0635;470.19;483.87
1.0674;468.23;481.92
1.0714;466.28;479.96
1.0753;464.32;479.96
1.0792;462.37;476.05
1.0831;460.41;474.10
1.0870;458.46;472.14
1.0909;456.50;470.19
1.0948;454.55;468.23
1.0987;452.59;468.23
1.1026;450.64;464.32
1.1065;448.68;462.37
1.1105;446.73;462.37
1.1144;444.77;460.41
1.1183;442.82;456.50
1.1222;440.86;456.50
1.1261;438.91;454.55
1.1300;436.95;450.64
1.1339;435.00;450.64
1.1378;433.04;446.73
1.1417;431.09;446.73
1.1456;429.13;442.82
1.1496;427.17;442.82
1.1535;425.22;438.91
1.1574;423.26;438.91
1.1613;421.31;436.95
1.1652;419.35;435.00
1.1691;417.40;433.04
1.1730;415.44;431.09
1.1769;413.49;427.17
1.1808;411.53;427.17
1.1847;409.58;425.22
1.1887;407.62;423.26
1.1926;405.67;421.31
1.1965;403.71;419.35
1.2004;401.76;417.40
1.2043;399.80;415.44
1.2082;397.85;413.49
1.2121;395.89;409.58
1.2160;393.94;411.53
1.2199;391.98;407.62
1.2239;390.03;407.62
1.2278;388.07;403.71
1.2317;386.12;401.76
1.2356;384.16;399.80
1.2395;382.21;397.85
1.2434;380.25;397.85
1.2473;378.30;393.94
1.2512;376.34;393.94
1.2551;374.39;391.98
1.2590;372.43;390.03
1.2630;370.48;388.07
1.2669;368.52;386.12
1.2708;366.57;382.21
1.2747;364.61;380.25
1.2786;362.66;380.25
1.2825;360.70;378.30
1.2864;358.75;376.34
1.2903;356.79;374.39
1.2942;354.84;370.48
1.2981;352.88;370.48
1.3021;350.93;366.57
1.3060;348.97;366.57
1.3099;347.02;364.61
1.3138;345.06;362.66
1.3177;343.11;360.70
1.3216;341.15;358.75
1.3255;339.20;356.79
1.3294;337.24;354.84
1.3333;335.29;352.88
1.3372;333.33;350.93
1.3412;331.38;348.97
1.3451;329.42;347.02
1.3490;327.47;345.06
1.3529;325.51;343.11
1.3568;323.56;341.15
1.3607;321.60;339.20
1.3646;319.65;337.24
1.3685;317.69;335.29
1.3724;315.74;333.33
1.3763;313.78;333.33
1.3803;311.83;331.38
1.3842;309.87;327.47
1.3881;307.92;325.51
1.3920;305.96;323.56
1.3959;304.01;321.60
1.3998;302.05;319.65
1.4037;300.10;319.65
1.4076;298.14;315.74
1.4115;296.19;315.74
1.4154;294.23;311.83
1.4194;292.28;309.87
1.4233;290.32;307.92
1.4272;288.37;305.96
1.4311;286.41;304.01
1.4350;284.46;304.01
1.4389;282.50;300.10
1.4428;280.55;300.10
1.4467;278.59;294.23
1.4506;276.64;296.19
1.4545;274.68;292.28
1.4585;272.73;292.28
1.4624;270.77;290.32
1.4663;268.82;288.37
1.4702;266.86;286.41
1.4741;264.91;284.46
1.4780;262.95;280.55
1.4819;261.00;280.55
1.4858;259.04;278.59
1.4897;257.09;276.64
1.4936;255.13;274.68
1.4976;253.18;270.77
1.5015;251.22;270.77
1.5054;249.27;268.82
1.5093;247.31;266.86
1.5132;245.36;264.91
1.5171;243.40;262.95
1.5210;241.45;261.00
1.5249;239.49;259.04
1.5288;237.54;255.13
1.5327;235.58;255.13
1.5367;233.63;253.18
1.5406;231.67;251.22
1.5445;229.72;247.31
1.5484;227.76;245.36
1.5523;225.81;245.36
1.5562;223.85;243.40
1.5601;221.90;241.45
1.5640;219.94;239.49
1.5679;217.99;237.54
1.5718;216.03;235.58
1.5758;214.08;231.67
1.5797;212.12;231.67
1.5836;210.17;229.72
1.5875;208.21;229.72
1.5914;206.26;225.81
1.5953;204.30;223.85
1.5992;202.35;219.94
1.6031;200.39;219.94
1.6070;198.44;217.99
1.6109;196.48;216.03
1.6149;194.53;212.12
1.6188;192.57;212.12
1.6227;190.62;210.17
1.6266;188.66;206.26
1.6305;186.71;206.26
1.6344;184.75;204.30
1.6383;182.80;204.30
1.6422;180.84;200.39
1.6461;178.89;198.44
1.6500;176.93;196.48
1.6540;174.98;194.53
1.6579;173.02;192.57
1.6618;171.07;192.57
1.6657;169.11;188.66
1.6696;167.16;188.66
1.6735;165.20;186.71
1.6774;163.25;184.75
1.6813;161.29;182.80
1.6852;159.34;178.89
1.6891;157.38;176.93
1.6931;155.43;174.98
1.6970;153.47;174.98
1.7009;151.52;173.02
1.7048;149.56;171.07
1.7087;147.61;169.11
1.7126;145.65;165.20
1.7165;143.70;163.25
1.7204;141.74;163.25
1.7243;139.78;159.34
1.7282;137.83;159.34
1.7322;135.87;155.43
1.7361;133.92;155.43
1.7400;131.96;153.47
1.7439;130.01;151.52
1.7478;128.05;147.61
1.7517;126.10;147.61
1.7556;124.14;143.70
1.7595;122.19;143.70
1.7634;120.23;141.74
1.7673;118.28;141.74
1.7713;116.32;137.83
1.7752;114.37;135.87
1.7791;112.41;133.92
1.7830;110.46;130.01
1.7869;108.50;130.01
1.7908;106.55;128.05
1.7947;104.59;128.05
1.7986;102.64;126.10
1.8025;100.68;122.19
1.8064;98.73;116.32
1.8104;96.77;71.36
1.8143;94.82;116.32
1.8182;92.86;110.46
1.8221;90.91;65.49
1.8260;88.95;112.41
1.8299;87.00;104.59
1.8338;85.04;61.58
1.8377;83.09;106.55
1.8416;81.13;98.73
1.8456;79.18;57.67
1.8495;77.22;96.77
1.8534;75.27;53.76
1.8573;73.31;92.86
1.8612;71.36;51.81
1.8651;69.40;88.95
1.8690;67.45;47.90
1.8729;65.49;83.09
1.8768;63.54;43.99
1.8807;61.58;81.13
1.8847;59.63;38.12
1.8886;57.67;75.27
1.8925;55.72;36.17
1.8964;53.76;73.31
1.9003;51.81;32.26
1.9042;49.85;69.40
1.9081;47.90;28.35
1.9120;45.94;65.49
1.9159;43.99;24.44
1.9198;42.03;63.54
1.9238;40.08;20.53
1.9277;38.12;57.67
1.9316;36.17;16.62
1.9355;34.21;53.76
1.9394;32.26;12.71
1.9433;30.30;49.85
1.9472;28.35;8.80
1.9511;26.39;2.93
1.9550;24.44;43.99
1.9589;22.48;0.98
1.9629;20.53;-2.93
1.9668;18.57;42.03
1.9707;16.62;-8.80
1.9746;14.66;40.08
1.9785;12.71;-8.80
1.9824;10.75;34.21
1.9863;8.80;-8.80
1.9902;6.84;-16.62
1.9941;4.89;30.30
1.9980;2.93;-14.66
2.0020;0.98;20.53
2.0059;-0.98;-20.53
2.0098;-2.93;20.53
2.0137;-4.89;-26.39
2.0176;-6.84;-26.39
2.0215;-8.80;14.66
2.0254;-10.75;8.80
2.0293;-12.71;-30.30
2.0332;-14.66;-34.21
2.0371;-16.62;-34.21
2.0411;-18.57;-36.17
2.0450;-20.53;-38.12
2.0489;-22.48;-42.03
2.0528;-24.44;-43.99
2.0567;-26.39;-45.94
2.0606;-28.35;-47.90
2.0645;-30.30;-49.85
2.0684;-32.26;-51.81
2.0723;-34.21;-53.76
2.0762;-36.17;-53.76
2.0802;-38.12;-57.67
2.0841;-40.08;-57.67
2.0880;-42.03;-59.63
2.0919;-43.99;-63.54
2.0958;-45.94;-65.49
2.0997;-47.90;-65.49
2.1036;-49.85;-69.40
2.1075;-51.81;-69.40
2.1114;-53.76;-73.31
2.1153;-55.72;-73.31
2.1193;-57.67;-77.22
2.1232;-59.63;-77.22
2.1271;-61.58;-79.18
2.1310;-63.54;-81.13
2.1349;-65.49;-81.13
2.1388;-67.45;-85.04
2.1427;-69.40;-87.00
2.1466;-71.36;-88.95
2.1505;-73.31;-90.91
2.1544;-75.27;-94.82
2.1584;-77.22;-94.82
2.1623;-79.18;-96.77
2.1662;-81.13;-96.77
2.1701;-83.09;-98.73
2.1740;-85.04;-102.64
2.1779;-87.00;-106.55
2.1818;-88.95;-69.40
2.1857;-90.91;-71.36
2.1896;-92.86;-73.31
2.1935;-94.82;-75.27
2.1975;-96.77;-77.22
2.2014;-98.73;-77.22
2.2053;-100.68;-77.22
2.2092;-102.64;-120.23
2.2131;-104.59;-83.09
2.2170;-106.55;-81.13
2.2209;-108.50;-126.10
2.2248;-110.46;-88.95
2.2287;-112.41;-85.04
2.2326;-114.37;-131.96
2.2366;-116.32;-94.82
2.2405;-118.28;-92.86
2.2444;-120.23;-137.83
2.2483;-122.19;-100.68
2.2522;-124.14;-141.74
2.2561;-126.10;-106.55
2.2600;-128.05;-143.70
2.2639;-130.01;-110.46
2.2678;-131.96;-149.56
2.2717;-133.92;-110.46
2.2757;-135.87;-151.52
2.2796;-137.83;-116.32
2.2835;-139.78;-155.43
2.2874;-141.74;-120.23
2.2913;-143.70;-157.38
2.2952;-145.65;-124.14
2.2991;-147.61;-163.25
2.3030;-149.56;-130.01
2.3069;-151.52;-165.20
2.3108;-153.47;-131.96
2.3148;-155.43;-169.11
2.3187;-157.38;-135.87
2.3226;-159.34;-176.93
2.3265;-161.29;-141.74
2.3304;-163.25;-176.93
2.3343;-165.20;-145.65
2.3382;-167.16;-180.84
2.3421;-169.11;-147.61
2.3460;-171.07;-186.71
2.3499;-173.02;-155.43
2.3539;-174.98;-192.57
2.3578;-176.93;-159.34
2.3617;-178.89;-192.57
2.3656;-180.84;-167.16
2.3695;-182.80;-196.48
2.3734;-184.75;-174.98
2.3773;-186.71;-202.35
2.3812;-188.66;-188.66
2.3851;-190.62;-204.30
2.3890;-192.57;-204.30
2.3930;-194.53;-210.17
2.3969;-196.48;-216.03
2.4008;-198.44;-212.12
2.4047;-200.39;-221.90
2.4086;-202.35;-216.03
2.4125;-204.30;-223.85
2.4164;-206.26;-219.94
2.4203;-208.21;-229.72
2.4242;-210.17;-225.81
2.4282;-212.12;-231.67
2.4321;-214.08;-227.76
2.4360;-216.03;-237.54
2.4399;-217.99;-233.63
2.4438;-219.94;-239.49
2.4477;-221.90;-235.58
2.4516;-223.85;-245.36
2.4555;-225.81;-239.49
2.4594;-227.76;-249.27
2.4633;-229.72;-243.40
2.4673;-231.67;-253.18
2.4712;-233.63;-247.31
2.4751;-235.58;-255.13
2.4790;-237.54;-251.22
2.4829;-239.49;-259.04
2.4868;-241.45;-257.09
2.4907;-243.40;-262.95
2.4946;-245.36;-259.04
2.4985;-247.31;-266.86
2.5024;-249.27;-262.95
2.5064;-251.22;-270.77
2.5103;-253.18;-268.82
2.5142;-255.13;-274.68
2.5181;-257.09;-274.68
2.5220;-259.04;-276.64
2.5259;-261.00;-274.68
2.5298;-262.95;-280.55
2.5337;-264.91;-278.59
2.5376;-266.86;-286.41
2.5415;-268.82;-280.55
2.5455;-270.77;-288.37
2.5494;-272.73;-286.41
2.5533;-274.68;-292.28
2.5572;-276.64;-288.37
2.5611;-278.59;-298.14
2.5650;-280.55;-292.28
2.5689;-282.50;-300.10
2.5728;-284.46;-296.19
2.5767;-286.41;-304.01
2.5806;-288.37;-302.05
2.5846;-290.32;-307.92
2.5885;-292.28;-304.01
2.5924;-294.23;-311.83
2.5963;-296.19;-307.92
2.6002;-298.14;-315.74
2.6041;-300.10;-311.83
2.6080;-302.05;-317.69
2.6119;-304.01;-315.74
2.6158;-305.96;-321.60
2.6197;-307.92;-319.65
2.6237;-309.87;-327.47
2.6276;-311.83;-323.56
2.6315;-313.78;-331.38
2.6354;-315.74;-327.47
2.6393;-317.69;-333.33
2.6432;-319.65;-331.38
2.6471;-321.60;-337.24
2.6510;-323.56;-337.24
2.6549;-325.51;-343.11
2.6588;-327.47;-339.20
2.6628;-329.42;-345.06
2.6667;-331.38;-343.11
2.6706;-333.33;-348.97
2.6745;-335.29;-347.02
2.6784;-337.24;-354.84
2.6823;-339.20;-352.88
2.6862;-341.15;-358.75
2.6901;-343.11;-354.84
2.6940;-345.06;-360.70
2.6979;-347.02;-356.79
2.7019;-348.97;-364.61
2.7058;-350.93;-364.61
2.7097;-352.88;-368.52
2.7136;-354.84;-366.57
2.7175;-356.79;-372.43
2.7214;-358.75;-370.48
2.7253;-360.70;-374.39
2.7292;-362.66;-374.39
2.7331;-364.61;-380.25
2.7370;-366.57;-376.34
2.7410;-368.52;-384.16
2.7449;-370.48;-382.21
2.7488;-372.43;-386.12
2.7527;-374.39;-384.16
2.7566;-376.34;-391.98
2.7605;-378.30;-388.07
2.7644;-380.25;-395.89
2.7683;-382.21;-395.89
2.7722;-384.16;-397.85
2.7761;-386.12;-397.85
2.7801;-388.07;-401.76
2.7840;-390.03;-397.85
2.7879;-391.98;-405.67
2.7918;-393.94;-403.71
2.7957;-395.89;-411.53
2.7996;-397.85;-407.62
2.8035;-399.80;-415.44
2.8074;-401.76;-411.53
2.8113;-403.71;-419.35
2.8152;-405.67;-415.44
2.8192;-407.62;-421.31
2.8231;-409.58;-421.31
2.8270;-411.53;-425.22
2.8309;-413.49;-425.22
2.8348;-415.44;-429.13
2.8387;-417.40;-429.13
2.8426;-419.35;-433.04
2.8465;-421.31;-431.09
2.8504;-423.26;-438.91
2.8543;-425.22;-435.00
2.8583;-427.18;-440.86
2.8622;-429.13;-440.86
2.8661;-431.09;-446.73
2.8700;-433.04;-440.86
2.8739;-435.00;-446.73
2.8778;-436.95;-444.77
2.8817;-438.91;-452.59
2.8856;-440.86;-450.64
2.8895;-442.82;-458.46
2.8934;-444.77;-454.55
2.8974;-446.73;-460.41
2.9013;-448.68;-456.50
2.9052;-450.64;-464.32
2.9091;-452.59;-460.41
2.9130;-454.55;-466.28
2.9169;-456.50;-466.28
2.9208;-458.46;-472.14
2.9247;-460.41;-466.28
2.9286;-462.37;-474.10
2.9325;-464.32;-472.14
2.9365;-466.28;-478.01
2.9404;-468.23;-476.05
2.9443;-470.19;-481.92
2.9482;-472.14;-479.96
2.9521;-474.10;-485.83
2.9560;-476.05;-483.87
2.9599;-478.01;-491.69
2.9638;-479.96;-487.78
2.9677;-481.92;-493.65
2.9716;-483.87;-491.69
2.9756;-485.83;-497.56
2.9795;-487.78;-495.60
2.9834;-489.74;-499.51
2.9873;-491.69;-499.51
2.9912;-493.65;-507.33
2.9951;-495.60;-503.42
2.9990;-497.56;-509.29
3.0029;-499.51;-507.33
3.0068;-501.47;-511.24
3.0108;-503.42;-511.24
3.0147;-505.38;-519.06
3.0186;-507.33;-515.15
3.0225;-509.29;-521.02
3.0264;-511.24;-519.06
3.0303;-513.20;-526.88
3.0342;-515.15;-522.97
3.0381;-517.11;-526.88
3.0420;-519.06;-528.84
3.0459;-521.02;-530.79
3.0499;-522.97;-530.79
3.0538;-524.93;-536.66
3.0577;-526.88;-534.70
3.0616;-528.84;-538.61
3.0655;-530.79;-538.61
3.0694;-532.75;-544.48
3.0733;-534.70;-542.52
3.0772;-536.66;-546.43
3.0811;-538.61;-548.39
3.0850;-540.57;-554.25
3.0890;-542.52;-548.39
3.0929;-544.48;-554.25
3.0968;-546.43;-552.30
3.1007;-548.39;-558.16
3.1046;-550.34;-556.21
3.1085;-552.30;-562.07
3.1124;-554.25;-560.12
3.1163;-556.21;-565.98
3.1202;-558.16;-564.03
3.1241;-560.12;-571.85
3.1281;-562.07;-571.85
3.1320;-564.03;-575.76
3.1359;-565.98;-571.85
3.1398;-567.94;-577.71
3.1437;-569.89;-575.76
3.1476;-571.85;-581.62
3.1515;-573.80;-579.67
3.1554;-575.76;-585.53
3.1593;-577.71;-583.58
3.1632;-579.67;-591.40
3.1672;-581.62;-589.44
3.1711;-583.58;-593.35
3.1750;-585.53;-591.40
3.1789;-587.49;-595.31
3.1828;-589.44;-595.31
3.1867;-591.40;-599.22
3.1906;-593.35;-599.22
3.1945;-595.31;-605.08
3.1984;-597.26;-603.13
3.2023;-599.22;-607.04
3.2063;-601.17;-607.04
3.2102;-603.13;-610.95
3.2141;-605.08;-612.90
3.2180;-607.04;-616.81
3.2219;-608.99;-614.86
3.2258;-610.95;-622.68
3.2297;-612.90;-618.77
3.2336;-614.86;-622.68
3.2375;-616.81;-622.68
3.2414;-618.77;-630.50
3.2454;-620.72;-628.54
3.2493;-622.68;-632.45
3.2532;-624.63;-630.50
3.2571;-626.59;-634.41
3.2610;-628.54;-632.45
3.2649;-630.50;-638.32
3.2688;-632.45;-638.32
3.2727;-634.41;-642.23
3.2766;-636.36;-642.23
3.2805;-638.32;-646.14
3.2845;-640.27;-644.18
3.2884;-642.23;-648.09
3.2923;-644.18;-650.05
3.2962;-646.14;-655.91
3.3001;-648.09;-652.00
3.3040;-650.05;-657.87
3.3079;-652.00;-655.91
3.3118;-653.96;-661.78
3.3157;-655.91;-661.78
3.3196;-657.87;-663.73
3.3236;-659.82;-669.60
3.3275;-661.78;-669.60
3.3314;-663.73;-667.64
3.3353;-665.69;-673.51
3.3392;-667.64;-671.55
3.3431;-669.60;-677.42
3.3470;-671.55;-675.46
3.3509;-673.51;-681.33
3.3548;-675.46;-681.33
3.3587;-677.42;-685.24
3.3627;-679.37;-685.24
3.3666;-681.33;-689.15
3.3705;-683.28;-687.19
3.3744;-685.24;-693.06
3.3783;-687.19;-693.06
3.3822;-689.15;-696.97
3.3861;-691.10;-695.01
3.3900;-693.06;-700.88
3.3939;-695.01;-698.92
3.3978;-696.97;-700.88
3.4018;-698.92;-702.83
3.4057;-700.88;-704.79
3.4096;-702.83;-708.70
3.4135;-704.79;-714.57
3.4174;-706.74;-710.66
3.4213;-708.70;-716.52
3.4252;-710.66;-714.57
3.4291;-712.61;-720.43
3.4330;-714.57;-720.43
3.4369;-716.52;-724.34
3.4409;-718.48;-726.30
3.4448;-720.43;-726.30
3.4487;-722.39;-726.30
3.4526;-724.34;-730.21
3.4565;-726.30;-730.21
3.4604;-728.25;-736.07
3.4643;-730.21;-734.12
3.4682;-732.16;-739.98
3.4721;-734.12;-738.03
3.4760;-736.07;-739.98
3.4800;-738.03;-743.89
3.4839;-739.98;-745.85
3.4878;-741.94;-743.89
3.4917;-743.89;-747.80
3.4956;-745.85;-749.76
3.4995;-747.80;-753.67
3.5034;-749.76;-753.67
3.5073;-751.71;-759.53
3.5112;-753.67;-757.58
3.5151;-755.62;-759.53
3.5191;-757.58;-761.49
3.5230;-759.53;-763.44
3.5269;-761.49;-765.40
3.5308;-763.44;-769.31
3.5347;-765.40;-769.31
3.5386;-767.35;-771.26
3.5425;-769.31;-771.26
3.5464;-771.26;-777.13
3.5503;-773.22;-775.17
3.5542;-775.17;-779.08
3.5582;-777.13;-781.04
3.5621;-779.08;-784.95
3.5660;-781.04;-784.95
3.5699;-782.99;-786.90
3.5738;-784.95;-788.86
3.5777;-786.90;-792.77
3.5816;-788.86;-790.81
3.5855;-790.81;-796.68
3.5894;-792.77;-794.72
3.5933;-794.72;-802.54
3.5973;-796.68;-798.63
3.6012;-798.63;-802.54
3.6051;-800.59;-806.45
3.6090;-802.54;-806.45
3.6129;-804.50;-808.41
3.6168;-806.45;-810.36
3.6207;-808.41;-812.32
3.6246;-810.36;-814.27
3.6285;-812.32;-816.23
3.6325;-814.27;-820.14
3.6364;-816.23;-818.18
3.6403;-818.18;-826.00
3.6442;-820.14;-826.00
3.6481;-822.09;-826.00
3.6520;-824.05;-826.00
3.6559;-826.00;-829.91
3.6598;-827.96;-831.87
3.6637;-829.91;-833.82
3.6676;-831.87;-833.82
3.6716;-833.82;-837.73
3.6755;-835.78;-843.60
3.6794;-837.73;-841.64
3.6833;-839.69;-841.64
3.6872;-841.64;-843.60
3.6911;-843.60;-847.51
3.6950;-845.55;-851.42
3.6989;-847.51;-849.46
3.7028;-849.46;-853.37
3.7067;-851.42;-853.37
3.7107;-853.37;-857.28
3.7146;-855.33;-855.33
3.7185;-857.28;-861.19
3.7224;-859.24;-863.15
3.7263;-861.19;-867.06
3.7302;-863.15;-863.15
3.7341;-865.10;-865.10
3.7380;-867.06;-869.01
3.7419;-869.01;-870.97
3.7458;-870.97;-874.88
3.7498;-872.92;-874.88
3.7537;-874.88;-874.88
3.7576;-876.83;-880.74
3.7615;-878.79;-884.65
3.7654;-880.74;-882.70
3.7693;-882.70;-882.70
3.7732;-884.65;-886.61
3.7771;-886.61;-892.47
3.7810;-888.56;-890.52
3.7849;-890.52;-890.52
3.7889;-892.47;-894.43
3.7928;-894.43;-896.38
3.7967;-896.38;-898.34
3.8006;-898.34;-900.29
3.8045;-900.29;-900.29
3.8084;-902.25;-906.16
3.8123;-904.20;-908.11
3.8162;-906.16;-908.11
3.8201;-908.11;-910.07
3.8240;-910.07;-912.02
3.8280;-912.02;-913.98
3.8319;-913.98;-913.98
3.8358;-915.93;-917.89
3.8397;-917.89;-919.84
3.8436;-919.84;-921.80
3.8475;-921.80;-921.80
3.8514;-923.75;-923.75
3.8553;-925.71;-927.66
3.8592;-927.66;-929.62
3.8631;-929.62;-931.57
3.8671;-931.57;-933.53
3.8710;-933.53;-933.53
3.8749;-935.48;-937.44
3.8788;-937.44;-935.48
3.8827;-939.39;-941.35
3.8866;-941.35;-945.26
3.8905;-943.30;-945.26
3.8944;-945.26;-949.17
3.8983;-947.21;-949.17
3.9022;-949.17;-949.17
3.9062;-951.12;-951.12
3.9101;-953.08;-955.03
3.9140;-955.03;-955.03
3.9179;-956.99;-956.99
3.9218;-958.94;-958.94
3.9257;-960.90;-960.90
3.9296;-962.85;-964.81
3.9335;-964.81;-966.76
3.9374;-966.76;-966.76
3.9413;-968.72;-972.63
3.9453;-970.67;-972.63
3.9492;-972.63;-972.63
3.9531;-974.58;-976.54
3.9570;-976.54;-976.54
3.9609;-978.49;-978.49
3.9648;-980.45;-982.40
3.9687;-982.40;-980.45
3.9726;-984.36;-984.36
3.9765;-986.31;-986.31
3.9804;-988.27;-988.27
3.9844;-990.22;-994.13
3.9883;-992.18;-992.18
3.9922;-994.13;-1000.00
3.9961;-996.09;-996.09
4.0000;-998.05;-998.05
4.0039;-1000.00;-1000.00
4.0078;-1000.00;-1000.00
4.0117;-998.05;-1000.00
4.0156;-996.09;-996.09
4.0195;-994.13;-996.09
4.0235;-992.18;-992.18
4.0274;-990.22;-992.18
4.0313;-988.27;-988.27
4.0352;-986.31;-990.22
4.0391;-984.36;-984.36
4.0430;-982.40;-982.40
4.0469;-980.45;-982.40
4.0508;-978.49;-978.49
4.0547;-976.54;-978.49
4.0586;-974.58;-974.58
4.0626;-972.63;-976.54
4.0665;-970.67;-968.72
4.0704;-968.72;-968.72
4.0743;-966.76;-968.72
4.0782;-964.81;-970.67
4.0821;-962.85;-964.81
4.0860;-960.90;-958.94
4.0899;-958.94;-958.94
4.0938;-956.99;-956.99
4.0977;-955.03;-955.03
4.1017;-953.08;-955.03
4.1056;-951.12;-953.08
4.1095;-949.17;-949.17
4.1134;-947.21;-947.21
4.1173;-945.26;-945.26
4.1212;-943.30;-947.21
4.1251;-941.35;-943.30
4.1290;-939.39;-943.30
4.1329;-937.44;-943.30
4.1368;-935.48;-937.44
4.1408;-933.53;-933.53
4.1447;-931.57;-933.53
4.1486;-929.62;-929.62
4.1525;-927.66;-929.62
4.1564;-925.71;-923.75
4.1603;-923.75;-927.66
4.1642;-921.80;-923.75
4.1681;-919.84;-919.84
4.1720;-917.89;-919.84
4.1759;-915.93;-917.89
4.1799;-913.98;-913.98
4.1838;-912.02;-915.93
4.1877;-910.07;-913.98
4.1916;-908.11;-910.07
4.1955;-906.16;-906.16
4.1994;-904.20;-906.16
4.2033;-902.25;-906.16
4.2072;-900.29;-902.25
4.2111;-898.34;-904.20
4.2151;-896.38;-898.34
4.2190;-894.43;-896.38
4.2229;-892.47;-894.43
4.2268;-890.52;-892.47
4.2307;-888.56;-892.47
4.2346;-886.61;-888.56
4.2385;-884.65;-886.61
4.2424;-882.70;-884.65
4.2463;-880.74;-886.61
4.2502;-878.79;-878.79
4.2542;-876.83;-880.74
4.2581;-874.88;-880.74
4.2620;-872.92;-874.88
4.2659;-870.97;-874.88
4.2698;-869.01;-870.97
4.2737;-867.06;-867.06
4.2776;-865.10;-867.06
4.2815;-863.15;-865.10
4.2854;-861.19;-867.06
4.2893;-859.24;-863.15
4.2933;-857.28;-863.15
4.2972;-855.33;-857.28
4.3011;-853.37;-859.24
4.3050;-851.42;-853.37
4.3089;-849.46;-853.37
4.3128;-847.51;-849.46
4.3167;-845.55;-853.37
4.3206;-843.60;-845.55
4.3245;-841.64;-845.55
4.3284;-839.69;-841.64
4.3324;-837.73;-839.69
4.3363;-835.78;-837.73
4.3402;-833.82;-837.73
4.3441;-831.87;-835.78
4.3480;-829.91;-831.87
4.3519;-827.96;-829.91
4.3558;-826.00;-829.91
4.3597;-824.05;-826.00
4.3636;-822.09;-826.00
4.3675;-820.14;-824.05
4.3715;-818.18;-824.05
4.3754;-816.23;-820.14
4.3793;-814.27;-818.18
4.3832;-812.32;-814.27
4.3871;-810.36;-814.27
4.3910;-808.41;-810.36
4.3949;-806.45;-812.32
4.3988;-804.50;-810.36
4.4027;-802.54;-806.45
4.4066;-800.59;-804.50
4.4106;-798.63;-806.45
4.4145;-796.68;-798.63
4.4184;-794.72;-798.63
4.4223;-792.77;-796.68
4.4262;-790.81;-796.68
4.4301;-788.86;-790.81
4.4340;-786.90;-792.77
4.4379;-784.95;-788.86
4.4418;-782.99;-790.81
4.4457;-781.04;-782.99
4.4497;-779.08;-782.99
4.4536;-777.13;-781.04
4.4575;-775.17;-779.08
4.4614;-773.22;-777.13
4.4653;-771.26;-777.13
4.4692;-769.31;-777.13
4.4731;-767.35;-773.22
4.4770;-765.40;-771.26
4.4809;-763.44;-769.31
4.4848;-761.49;-767.35
4.4888;-759.53;-765.40
4.4927;-757.58;-763.44
4.4966;-755.62;-763.44
4.5005;-753.67;-757.58
4.5044;-751.71;-755.62
4.5083;-749.76;-755.62
4.5122;-747.80;-755.62
4.5161;-745.85;-749.76
4.5200;-743.89;-749.76
4.5239;-741.94;-745.85
4.5279;-739.98;-745.85
4.5318;-738.03;-739.98
4.5357;-736.07;-741.94
4.5396;-734.12;-738.03
4.5435;-732.16;-738.03
4.5474;-730.21;-734.12
4.5513;-728.25;-734.12
4.5552;-726.30;-730.21
4.5591;-724.34;-732.16
4.5630;-722.39;-726.30
4.5670;-720.43;-728.25
4.5709;-718.48;-722.39
4.5748;-716.52;-722.39
4.5787;-714.57;-718.48
4.5826;-712.61;-722.39
4.5865;-710.66;-714.57
4.5904;-708.70;-716.52
4.5943;-706.74;-712.61
4.5982;-704.79;-710.66
4.6021;-702.83;-708.70
4.6061;-700.88;-708.70
4.6100;-698.92;-706.74
4.6139;-696.97;-704.79
4.6178;-695.01;-698.92
4.6217;-693.06;-700.88
4.6256;-691.10;-696.97
4.6295;-689.15;-695.01
4.6334;-687.19;-691.10
4.6373;-685.24;-693.06
4.6412;-683.28;-691.10
4.6452;-681.33;-689.15
4.6491;-679.37;-683.28
4.6530;-677.42;-685.24
4.6569;-675.46;-681.33
4.6608;-673.51;-679.37
4.6647;-671.55;-677.42
4.6686;-669.60;-675.46
4.6725;-667.64;-671.55
4.6764;-665.69;-675.46
4.6803;-663.73;-669.60
4.6843;-661.78;-669.60
4.6882;-659.82;-665.69
4.6921;-657.87;-667.64
4.6960;-655.91;-661.78
4.6999;-653.96;-661.78
4.7038;-652.00;-655.91
4.7077;-650.05;-657.87
4.7116;-648.09;-655.91
4.7155;-646.14;-655.91
4.7194;-644.18;-650.05
4.7234;-642.23;-653.96
4.7273;-640.27;-646.14
4.7312;-638.32;-648.09
4.7351;-636.36;-644.18
4.7390;-634.41;-640.27
4.7429;-632.45;-638.32
4.7468;-630.50;-640.27
4.7507;-628.54;-636.36
4.7546;-626.59;-636.36
4.7585;-624.63;-628.54
4.7625;-622.68;-630.50
4.7664;-620.72;-626.59
4.7703;-618.77;-626.59
4.7742;-616.81;-626.59
4.7781;-614.86;-622.68
4.7820;-612.90;-618.77
4.7859;-610.95;-618.77
4.7898;-608.99;-614.86
4.7937;-607.04;-616.81
4.7976;-605.08;-610.95
4.8016;-603.13;-612.90
4.8055;-601.17;-607.04
4.8094;-599.22;-608.99
4.8133;-597.26;-601.17
4.8172;-595.31;-605.08
4.8211;-593.35;-601.17
4.8250;-591.40;-603.13
4.8289;-589.44;-597.26
4.8328;-587.49;-597.26
4.8368;-585.53;-593.35
4.8407;-583.58;-593.35
4.8446;-581.62;-587.49
4.8485;-579.67;-591.40
4.8524;-577.71;-585.53
4.8563;-575.76;-587.49
4.8602;-573.80;-581.62
4.8641;-571.85;-583.58
4.8680;-569.89;-575.76
4.8719;-567.94;-579.67
4.8759;-565.98;-575.76
4.8798;-564.03;-575.76
4.8837;-562.07;-571.85
4.8876;-560.12;-569.89
4.8915;-558.16;-565.98
4.8954;-556.21;-564.03
4.8993;-554.25;-562.07
4.9032;-552.30;-565.98
4.9071;-550.34;-560.12
4.9110;-548.39;-560.12
4.9150;-546.43;-552.30
4.9189;-544.48;-556.21
4.9228;-542.52;-548.39
4.9267;-540.57;-550.34
4.9306;-538.61;-546.43
4.9345;-536.66;-548.39
4.9384;-534.70;-544.48
4.9423;-532.75;-542.52
4.9462;-530.79;-538.61
4.9501;-528.84;-540.57
4.9541;-526.88;-534.70
4.9580;-524.93;-536.66
4.9619;-522.97;-532.75
4.9658;-521.02;-534.70
4.9697;-519.06;-526.88
4.9736;-517.11;-528.84
4.9775;-515.15;-522.97
4.9814;-513.20;-524.93
4.9853;-511.24;-519.06
4.9892;-509.29;-524.93
4.9932;-507.33;-515.15
4.9971;-505.38;-517.11
5.0010;-503.42;-511.24
5.0049;-501.47;-515.15
5.0088;-499.51;-507.33
5.0127;-497.56;-509.29
5.0166;-495.60;-505.38
5.0205;-493.65;-505.38
5.0244;-491.69;-499.51
5.0283;-489.74;-503.42
5.0323;-487.78;-495.60
5.0362;-485.83;-499.51
5.0401;-483.87;-493.65
5.0440;-481.92;-493.65
5.0479;-479.96;-489.74
5.0518;-478.01;-489.74
5.0557;-476.05;-487.78
5.0596;-474.10;-487.78
5.0635;-472.14;-479.96
5.0674;-470.19;-481.92
5.0714;-468.23;-479.96
5.0753;-466.28;-481.92
5.0792;-464.32;-476.05
5.0831;-462.37;-476.05
5.0870;-460.41;-468.23
5.0909;-458.46;-472.14
5.0948;-456.50;-466.28
5.0987;-454.55;-468.23
5.1026;-452.59;-464.32
5.1065;-450.64;-464.32
5.1105;-448.68;-458.46
5.1144;-446.73;-460.41
5.1183;-444.77;-454.55
5.1222;-442.82;-456.50
5.1261;-440.86;-450.64
5.1300;-438.91;-452.59
5.1339;-436.95;-446.73
5.1378;-435.00;-448.68
5.1417;-433.04;-440.86
5.1456;-431.09;-448.68
5.1496;-429.13;-438.91
5.1535;-427.18;-442.82
5.1574;-425.22;-436.95
5.1613;-423.26;-436.95
5.1652;-421.31;-431.09
5.1691;-419.35;-433.04
5.1730;-417.40;-429.13
5.1769;-415.44;-429.13
5.1808;-413.49;-423.26
5.1847;-411.53;-427.18
5.1887;-409.58;-421.31
5.1926;-407.62;-425.22
5.1965;-405.67;-417.40
5.2004;-403.71;-419.35
5.2043;-401.76;-415.44
5.2082;-399.80;-415.44
5.2121;-397.85;-409.58
5.2160;-395.89;-411.53
5.2199;-393.94;-403.71
5.2238;-391.98;-405.67
5.2278;-390.03;-401.76
5.2317;-388.07;-403.71
5.2356;-386.12;-397.85
5.2395;-384.16;-401.76
5.2434;-382.21;-393.94
5.2473;-380.25;-395.89
5.2512;-378.30;-390.03
5.2551;-376.34;-391.98
5.2590;-374.39;-386.12
5.2629;-372.43;-388.07
5.2669;-370.48;-382.21
5.2708;-368.52;-386.12
5.2747;-366.57;-380.25
5.2786;-364.61;-380.25
5.2825;-362.66;-374.39
5.2864;-360.70;-380.25
5.2903;-358.75;-370.48
5.2942;-356.79;-374.39
5.2981;-354.84;-364.61
5.3020;-352.88;-368.52
5.3060;-350.93;-362.66
5.3099;-348.97;-364.61
5.3138;-347.02;-358.75
5.3177;-345.06;-360.70
5.3216;-343.11;-354.84
5.3255;-341.15;-358.75
5.3294;-339.20;-350.93
5.3333;-337.24;-354.84
5.3372;-335.29;-350.93
5.3411;-333.33;-352.88
5.3451;-331.38;-345.06
5.3490;-329.42;-345.06
5.3529;-327.47;-341.15
5.3568;-325.51;-341.15
5.3607;-323.56;-335.29
5.3646;-321.60;-341.15
5.3685;-319.65;-333.33
5.3724;-317.69;-335.29
5.3763;-315.74;-327.47
5.3802;-313.78;-331.38
5.3842;-311.83;-325.51
5.3881;-309.87;-329.42
5.3920;-307.92;-321.60
5.3959;-305.96;-323.56
5.3998;-304.01;-315.74
5.4037;-302.05;-319.65
5.4076;-300.10;-313.78
5.4115;-298.14;-317.69
5.4154;-296.19;-309.87
5.4194;-294.23;-315.74
5.4233;-292.28;-305.96
5.4272;-290.32;-309.87
5.4311;-288.37;-302.05
5.4350;-286.41;-304.01
5.4389;-284.46;-300.10
5.4428;-282.50;-302.05
5.4467;-280.55;-294.23
5.4506;-278.59;-296.19
5.4545;-276.64;-290.32
5.4585;-274.68;-292.28
5.4624;-272.73;-288.37
5.4663;-270.77;-290.32
5.4702;-268.82;-286.41
5.4741;-266.86;-288.37
5.4780;-264.91;-278.59
5.4819;-262.95;-284.46
5.4858;-261.00;-274.68
5.4897;-259.04;-278.59
5.4936;-257.09;-268.82
5.4976;-255.13;-274.68
5.5015;-253.18;-268.82
5.5054;-251.22;-270.77
5.5093;-249.27;-262.95
5.5132;-247.31;-266.86
5.5171;-245.36;-259.04
5.5210;-243.40;-264.91
5.5249;-241.45;-257.09
5.5288;-239.49;-259.04
5.5327;-237.54;-251.22
5.5367;-235.58;-255.13
5.5406;-233.63;-247.31
5.5445;-231.67;-251.22
5.5484;-229.72;-247.31
5.5523;-227.76;-247.31
5.5562;-225.81;-243.40
5.5601;-223.85;-243.40
5.5640;-221.90;-235.58
5.5679;-219.94;-241.45
5.5718;-217.99;-233.63
5.5758;-216.03;-237.54
5.5797;-214.08;-229.72
5.5836;-212.12;-231.67
5.5875;-210.17;-227.76
5.5914;-208.21;-229.72
5.5953;-206.26;-219.94
5.5992;-204.30;-225.81
5.6031;-202.35;-216.03
5.6070;-200.39;-221.90
5.6109;-198.44;-212.12
5.6149;-196.48;-217.99
5.6188;-194.53;-210.17
5.6227;-192.57;-206.26
5.6266;-190.62;-206.26
5.6305;-188.66;-186.71
5.6344;-186.71;-204.30
5.6383;-184.75;-173.02
5.6422;-182.80;-196.48
5.6461;-180.84;-167.16
5.6500;-178.89;-194.53
5.6540;-176.93;-159.34
5.6579;-174.98;-190.62
5.6618;-173.02;-153.47
5.6657;-171.07;-188.66
5.6696;-169.11;-147.61
5.6735;-167.16;-184.75
5.6774;-165.20;-143.70
5.6813;-163.25;-178.89
5.6852;-161.29;-139.78
5.6891;-159.34;-174.98
5.6931;-157.38;-135.87
5.6970;-155.43;-171.07
5.7009;-153.47;-130.01
5.7048;-151.52;-167.16
5.7087;-149.56;-128.05
5.7126;-147.61;-165.20
5.7165;-145.65;-122.19
5.7204;-143.70;-161.29
5.7243;-141.74;-118.28
5.7282;-139.78;-157.38
5.7322;-137.83;-114.37
5.7361;-135.87;-155.43
5.7400;-133.92;-110.46
5.7439;-131.96;-149.56
5.7478;-130.01;-108.50
5.7517;-128.05;-145.65
5.7556;-126.10;-102.64
5.7595;-124.14;-141.74
5.7634;-122.19;-100.68
5.7673;-120.23;-139.78
5.7713;-118.28;-94.82
5.7752;-116.32;-88.95
5.7791;-114.37;-133.92
5.7830;-112.41;-90.91
5.7869;-110.46;-83.09
5.7908;-108.50;-126.10
5.7947;-106.55;-83.09
5.7986;-104.59;-77.22
5.8025;-102.64;-122.19
5.8064;-100.68;-79.18
5.8104;-98.73;-79.18
5.8143;-96.77;-73.31
5.8182;-94.82;-73.31
5.8221;-92.86;-71.36
5.8260;-90.91;-67.45
5.8299;-88.95;-67.45
5.8338;-87.00;-63.54
5.8377;-85.04;-63.54
5.8416;-83.09;-59.63
5.8455;-81.13;-59.63
5.8495;-79.18;-57.67
5.8534;-77.22;-55.72
5.8573;-75.27;-53.76
5.8612;-73.31;-53.76
5.8651;-71.36;-47.90
5.8690;-69.40;-49.85
5.8729;-67.45;-43.99
5.8768;-65.49;-43.99
5.8807;-63.54;-40.08
5.8846;-61.58;-40.08
5.8886;-59.63;-38.12
5.8925;-57.67;-36.17
5.8964;-55.72;-34.21
5.9003;-53.76;-32.26
5.9042;-51.81;-30.30
5.9081;-49.85;-28.35
5.9120;-47.90;-26.39
5.9159;-45.94;-26.39
5.9198;-43.99;-22.48
5.9237;-42.03;-20.53
5.9277;-40.08;-18.57
5.9316;-38.12;-16.62
5.9355;-36.17;-14.66
5.9394;-34.21;-12.71
5.9433;-32.26;-10.75
5.9472;-30.30;-8.80
5.9511;-28.35;-53.76
5.9550;-26.39;-49.85
5.9589;-24.44;-49.85
5.9628;-22.48;-47.90
5.9668;-20.53;-45.94
5.9707;-18.57;-40.08
5.9746;-16.62;-40.08
5.9785;-14.66;-38.12
5.9824;-12.71;-38.12
5.9863;-10.75;-36.17
5.9902;-8.80;-32.26
5.9941;-6.84;18.57
5.9980;-4.89;-30.30
6.0019;-2.93;-22.48
6.0059;-0.98;24.44
6.0098;0.98;-22.48
6.0137;2.93;22.48
6.0176;4.89;30.30
6.0215;6.84;-14.66
6.0254;8.80;30.30
6.0293;10.75;-10.75
6.0332;12.71;36.17
6.0371;14.66;-10.75
6.0411;16.62;-4.89
6.0450;18.57;40.08
6.0489;20.53;-0.98
6.0528;22.48;43.99
6.0567;24.44;2.93
6.0606;26.39;0.98
6.0645;28.35;47.90
6.0684;30.30;8.80
6.0723;32.26;8.80
6.0762;34.21;53.76
6.0802;36.17;16.62
6.0841;38.12;57.67
6.0880;40.08;18.57
6.0919;42.03;63.54
6.0958;43.99;22.48
6.0997;45.94;67.45
6.1036;47.90;26.39
6.1075;49.85;69.40
6.1114;51.81;30.30
6.1153;53.76;73.31
6.1193;55.72;32.26
6.1232;57.67;79.18
6.1271;59.63;36.17
6.1310;61.58;81.13
6.1349;63.54;42.03
6.1388;65.49;85.04
6.1427;67.45;45.94
6.1466;69.40;88.95
6.1505;71.36;49.85
6.1544;73.31;94.82
6.1584;75.27;51.81
6.1623;77.22;94.82
6.1662;79.18;57.67
6.1701;81.13;100.68
6.1740;83.09;59.63
6.1779;85.04;108.50
6.1818;87.00;106.55
6.1857;88.95;61.58
6.1896;90.91;114.37
6.1935;92.86;112.41
6.1975;94.82;67.45
6.2014;96.77;118.28
6.2053;98.73;120.23
6.2092;100.68;120.23
6.2131;102.64;122.19
6.2170;104.59;122.19
6.2209;106.55;126.10
6.2248;108.50;128.05
6.2287;110.46;128.05
6.2326;112.41;131.96
6.2366;114.37;133.92
6.2405;116.32;135.87
6.2444;118.28;135.87
6.2483;120.23;137.83
6.2522;122.19;139.78
6.2561;124.14;143.70
6.2600;126.10;143.70
6.2639;128.05;147.61
6.2678;130.01;147.61
6.2717;131.96;149.56
6.2757;133.92;153.47
6.2796;135.87;155.43
6.2835;137.83;157.38
6.2874;139.78;159.34
6.2913;141.74;159.34
6.2952;143.70;161.29
6.2991;145.65;163.25
6.3030;147.61;167.16
6.3069;149.56;167.16
6.3108;151.52;171.07
6.3148;153.47;173.02
6.3187;155.43;173.02
6.3226;157.38;174.98
6.3265;159.34;176.93
6.3304;161.29;180.84
6.3343;163.25;182.80
6.3382;165.20;184.75
6.3421;167.16;184.75
6.3460;169.11;186.71
6.3499;171.07;188.66
6.3539;173.02;190.62
6.3578;174.98;192.57
6.3617;176.93;192.57
6.3656;178.89;196.48
6.3695;180.84;198.44
6.3734;182.80;202.35
6.3773;184.75;202.35
6.3812;186.71;204.30
6.3851;188.66;206.26
6.3890;190.62;208.21
6.3930;192.57;210.17
6.3969;194.53;212.12
6.4008;196.48;216.03
6.4047;198.44;216.03
6.4086;200.39;216.03
6.4125;202.35;219.94
6.4164;204.30;221.90
6.4203;206.26;223.85
6.4242;208.21;225.81
6.4281;210.17;225.81
6.4321;212.12;229.72
6.4360;214.08;231.67
6.4399;216.03;231.67
6.4438;217.99;235.58
6.4477;219.94;237.54
6.4516;221.90;239.49
6.4555;223.85;241.45
6.4594;225.81;241.45
6.4633;227.76;243.40
6.4672;229.72;247.31
6.4712;231.67;247.31
6.4751;233.63;251.22
6.4790;235.58;251.22
6.4829;237.54;255.13
6.4868;239.49;255.13
6.4907;241.45;259.04
6.4946;243.40;261.00
6.4985;245.36;262.95
6.5024;247.31;264.91
6.5063;249.27;266.86
6.5103;251.22;268.82
6.5142;253.18;270.77
6.5181;255.13;272.73
6.5220;257.09;274.68
6.5259;259.04;276.64
6.5298;261.00;278.59
6.5337;262.95;278.59
6.5376;264.91;282.50
6.5415;266.86;284.46
6.5454;268.82;286.41
6.5494;270.77;288.37
6.5533;272.73;290.32
6.5572;274.68;290.32
6.5611;276.64;292.28
6.5650;278.59;294.23
6.5689;280.55;296.19
6.5728;282.50;300.10
6.5767;284.46;300.10
6.5806;286.41;302.05
6.5845;288.37;304.01
6.5885;290.32;305.96
6.5924;292.28;307.92
6.5963;294.23;309.87
6.6002;296.19;311.83
6.6041;298.14;313.78
6.6080;300.10;315.74
6.6119;302.05;317.69
6.6158;304.01;321.60
6.6197;305.96;323.56
6.6237;307.92;323.56
6.6276;309.87;323.56
6.6315;311.83;329.42
6.6354;313.78;329.42
6.6393;315.74;333.33
6.6432;317.69;333.33
6.6471;319.65;335.29
6.6510;321.60;337.24
6.6549;323.56;339.20
6.6588;325.51;341.15
6.6628;327.47;343.11
6.6667;329.42;345.06
6.6706;331.38;347.02
6.6745;333.33;348.97
6.6784;335.29;350.93
6.6823;337.24;352.88
6.6862;339.20;354.84
6.6901;341.15;356.79
6.6940;343.11;358.75
6.6979;345.06;360.70
6.7019;347.02;362.66
6.7058;348.97;364.61
6.7097;350.93;366.57
6.7136;352.88;366.57
6.7175;354.84;370.48
6.7214;356.79;372.43
6.7253;358.75;372.43
6.7292;360.70;376.34
6.7331;362.66;376.34
6.7370;364.61;380.25
6.7410;366.57;380.25
6.7449;368.52;384.16
6.7488;370.48;384.16
6.7527;372.43;388.07
6.7566;374.39;388.07
6.7605;376.34;391.98
6.7644;378.30;391.98
6.7683;380.25;395.89
6.7722;382.21;395.89
6.7761;384.16;397.85
6.7801;386.12;399.80
6.7840;388.07;401.76
6.7879;390.03;403.71
6.7918;391.98;405.67
6.7957;393.94;407.62
6.7996;395.89;409.58
6.8035;397.85;411.53
6.8074;399.80;413.49
6.8113;401.76;415.44
6.8152;403.71;417.40
6.8192;405.67;419.35
6.8231;407.62;421.31
6.8270;409.58;423.26
6.8309;411.53;425.22
6.8348;413.49;427.17
6.8387;415.44;429.13
6.8426;417.40;429.13
6.8465;419.35;433.04
6.8504;421.31;435.00
6.8543;423.26;436.95
6.8583;425.22;438.91
6.8622;427.17;440.86
6.8661;429.13;440.86
6.8700;431.09;442.82
6.8739;433.04;444.77
6.8778;435.00;448.68
6.8817;436.95;450.64
6.8856;438.91;452.59
6.8895;440.86;454.55
6.8934;442.82;456.50
6.8974;444.77;458.46
6.9013;446.73;460.41
6.9052;448.68;460.41
6.9091;450.64;464.32
6.9130;452.59;466.28
6.9169;454.55;468.23
6.9208;456.50;468.23
6.9247;458.46;470.19
6.9286;460.41;472.14
6.9325;462.37;474.10
6.9365;464.32;476.05
6.9404;466.28;479.96
6.9443;468.23;479.96
6.9482;470.19;481.92
6.9521;472.14;483.87
6.9560;474.10;485.83
6.9599;476.05;487.78
6.9638;478.01;489.74
6.9677;479.96;491.69
6.9716;481.92;495.60
6.9756;483.87;495.60
6.9795;485.83;497.56
6.9834;487.78;499.51
6.9873;489.74;501.47
6.9912;491.69;503.42
6.9951;493.65;505.38
6.9990;495.60;507.33
7.0029;497.56;509.29
7.0068;499.51;511.24
7.0107;501.47;513.20
7.0147;503.42;515.15
7.0186;505.38;517.11
7.0225;507.33;519.06
7.0264;509.29;521.02
7.0303;511.24;522.97
7.0342;513.20;524.93
7.0381;515.15;526.88
7.0420;517.11;526.88
7.0459;519.06;530.79
7.0498;521.02;532.75
7.0538;522.97;534.70
7.0577;524.93;534.70
7.0616;526.88;538.61
7.0655;528.84;540.57
7.0694;530.79;542.52
7.0733;532.75;544.48
7.0772;534.70;546.43
7.0811;536.66;548.39
7.0850;538.61;550.34
7.0889;540.57;550.34
7.0929;542.52;554.25
7.0968;544.48;556.21
7.1007;546.43;558.16
7.1046;548.39;560.12
7.1085;550.34;560.12
7.1124;552.30;564.03
7.1163;554.25;565.98
7.1202;556.21;565.98
7.1241;558.16;567.94
7.1280;560.12;569.89
7.1320;562.07;573.80
7.1359;564.03;573.80
7.1398;565.98;575.76
7.1437;567.94;577.71
7.1476;569.89;579.67
7.1515;571.85;581.62
7.1554;573.80;583.58
7.1593;575.76;585.53
7.1632;577.71;587.49
7.1671;579.67;589.44
7.1711;581.62;591.40
7.1750;583.58;593.35
7.1789;585.53;595.31
7.1828;587.49;597.26
7.1867;589.44;599.22
7.1906;591.40;601.17
7.1945;593.35;603.13
7.1984;595.31;605.08
7.2023;597.26;607.04
7.2062;599.22;608.99
7.2102;601.17;610.95
7.2141;603.13;612.90
7.2180;605.08;614.86
7.2219;607.04;616.81
7.2258;608.99;618.77
7.2297;610.95;618.77
7.2336;612.90;622.68
7.2375;614.86;622.68
7.2414;616.81;626.59
7.2454;618.77;628.54
7.2493;620.72;630.50
7.2532;622.68;632.45
7.2571;624.63;632.45
7.2610;626.59;634.41
7.2649;628.54;638.32
7.2688;630.50;640.27
7.2727;632.45;642.23
7.2766;634.41;642.23
7.2805;636.36;644.18
7.2845;638.32;648.09
7.2884;640.27;650.05
7.2923;642.23;650.05
7.2962;644.18;653.96
7.3001;646.14;653.96
7.3040;648.09;657.87
7.3079;650.05;657.87
7.3118;652.00;661.78
7.3157;653.96;661.78
7.3196;655.91;663.73
7.3236;657.87;665.69
7.3275;659.82;667.64
7.3314;661.78;669.60
7.3353;663.73;671.55
7.3392;665.69;673.51
7.3431;667.64;675.46
7.3470;669.60;677.42
7.3509;671.55;677.42
7.3548;673.51;679.37
7.3587;675.46;681.33
7.3627;677.42;683.28
7.3666;679.37;687.19
7.3705;681.33;689.15
7.3744;683.28;691.10
7.3783;685.24;691.10
7.3822;687.19;693.06
7.3861;689.15;696.97
7.3900;691.10;698.92
7.3939;693.06;698.92
7.3978;695.01;702.83
7.4018;696.97;704.79
7.4057;698.92;706.74
7.4096;700.88;706.74
7.4135;702.83;708.70
7.4174;704.79;712.61
7.4213;706.74;712.61
7.4252;708.70;716.52
7.4291;710.65;718.48
7.4330;712.61;720.43
7.4369;714.57;720.43
7.4409;716.52;722.39
7.4448;718.48;724.34
7.4487;720.43;726.30
7.4526;722.39;728.25
7.4565;724.34;730.21
7.4604;726.30;732.16
7.4643;728.25;736.07
7.4682;730.21;736.07
7.4721;732.16;738.03
7.4760;734.12;739.98
7.4800;736.07;741.94
7.4839;738.03;743.89
7.4878;739.98;745.85
7.4917;741.94;747.80
7.4956;743.89;749.76
7.4995;745.85;751.71
7.5034;747.80;751.71
7.5073;749.76;755.62
7.5112;751.71;755.62
7.5151;753.67;761.49
7.5191;755.62;761.49
7.5230;757.58;763.44
7.5269;759.53;765.40
7.5308;761.49;767.35
7.5347;763.44;769.31
7.5386;765.40;771.26
7.5425;767.35;773.22
7.5464;769.31;775.17
7.5503;771.26;777.13
7.5542;773.22;779.08
7.5582;775.17;781.04
7.5621;777.13;782.99
7.5660;779.08;784.95
7.5699;781.04;786.90
7.5738;782.99;788.86
7.5777;784.95;788.86
7.5816;786.90;792.77
7.5855;788.86;794.72
7.5894;790.81;796.68
7.5933;792.77;796.68
7.5973;794.72;798.63
7.6012;796.68;802.54
7.6051;798.63;804.50
7.6090;800.59;804.50
7.6129;802.54;808.41
7.6168;804.50;810.36
7.6207;806.45;812.32
7.6246;808.41;812.32
7.6285;810.36;814.27
7.6324;812.32;816.23
7.6364;814.27;818.18
7.6403;816.23;820.14
7.6442;818.18;822.09
7.6481;820.14;824.05
7.6520;822.09;824.05
7.6559;824.05;827.96
7.6598;826.00;829.91
7.6637;827.96;831.87
7.6676;829.91;833.82
7.6715;831.87;835.78
7.6755;833.82;839.69
7.6794;835.78;839.69
7.6833;837.73;839.69
7.6872;839.69;843.60
7.6911;841.64;845.55
7.6950;843.60;847.51
7.6989;845.55;847.51
7.7028;847.51;851.42
7.7067;849.46;853.37
7.7106;851.42;855.33
7.7146;853.37;857.28
7.7185;855.33;859.24
7.7224;857.28;861.19
7.7263;859.24;863.15
7.7302;861.19;865.10
7.7341;863.15;867.06
7.7380;865.10;869.01
7.7419;867.06;870.97
7.7458;869.01;870.97
7.7497;870.97;874.88
7.7537;872.92;876.83
7.7576;874.88;878.79
7.7615;876.83;880.74
7.7654;878.79;882.70
7.7693;880.74;884.65
7.7732;882.70;886.61
7.7771;884.65;888.56
7.7810;886.61;890.52
7.7849;888.56;892.47
7.7888;890.52;892.47
7.7928;892.47;896.38
7.7967;894.43;896.38
7.8006;896.38;900.29
7.8045;898.34;902.25
7.8084;900.29;902.25
7.8123;902.25;906.16
7.8162;904.20;906.16
7.8201;906.16;910.07
7.8240;908.11;910.07
7.8280;910.07;913.98
7.8319;912.02;913.98
7.8358;913.98;915.93
7.8397;915.93;917.89
7.8436;917.89;919.84
7.8475;919.84;921.80
7.8514;921.80;925.71
7.8553;923.75;927.66
7.8592;925.71;927.66
7.8631;927.66;929.62
7.8671;929.62;933.53
7.8710;931.57;933.53
7.8749;933.53;935.48
7.8788;935.48;937.44
7.8827;937.44;939.39
7.8866;939.39;941.35
7.8905;941.35;943.30
7.8944;943.30;945.26
7.8983;945.26;947.21
7.9022;947.21;949.17
7.9062;949.17;951.12
7.9101;951.12;953.08
7.9140;953.08;955.03
7.9179;955.03;956.99
7.9218;956.99;958.94
7.9257;958.94;960.90
7.9296;960.90;960.90
7.9335;962.85;964.81
7.9374;964.81;964.81
7.9413;966.76;968.72
7.9453;968.72;970.67
7.9492;970.67;972.63
7.9531;972.63;974.58
7.9570;974.58;974.58
7.9609;976.54;978.49
7.9648;978.49;980.45
7.9687;980.45;982.40
7.9726;982.40;984.36
7.9765;984.36;986.31
7.9804;986.31;988.27
7.9844;988.27;988.27
7.9883;990.22;990.22
7.9922;992.18;992.18
7.9961;994.13;994.13
8.0000;996.09;996.09
8.0039;998.04;1000.00
8.0078;1000.00;1000.00
8.0117;1000.00;1000.00
8.0156;998.04;998.04
8.0195;996.09;998.04
8.0235;994.13;996.09
8.0274;992.18;994.13
8.0313;990.22;992.18
8.0352;988.27;990.22
8.0391;986.31;988.27
8.0430;984.36;986.31
8.0469;982.40;984.36
8.0508;980.45;982.40
8.0547;978.49;980.45
8.0586;976.54;978.49
8.0626;974.58;976.54
8.0665;972.63;974.58
8.0704;970.67;970.67
8.0743;968.72;970.67
8.0782;966.76;968.72
8.0821;964.81;966.76
8.0860;962.85;964.81
8.0899;960.90;962.85
8.0938;958.94;960.90
8.0977;956.99;958.94
8.1017;955.03;956.99
8.1056;953.08;955.03
8.1095;951.12;953.08
8.1134;949.17;953.08
8.1173;947.21;949.17
8.1212;945.26;947.21
8.1251;943.30;945.26
8.1290;941.35;943.30
8.1329;939.39;941.35
8.1368;937.44;939.39
8.1408;935.48;937.44
8.1447;933.53;935.48
8.1486;931.57;933.53
8.1525;929.62;931.57
8.1564;927.66;931.57
8.1603;925.71;927.66
8.1642;923.75;927.66
8.1681;921.80;925.71
8.1720;919.84;921.80
8.1759;917.89;921.80
8.1799;915.93;919.84
8.1838;913.98;917.89
8.1877;912.02;913.98
8.1916;910.07;912.02
8.1955;908.11;912.02
8.1994;906.16;910.07
8.2033;904.20;908.11
8.2072;902.25;906.16
8.2111;900.29;904.20
8.2150;898.34;902.25
8.2190;896.38;900.29
8.2229;894.43;898.34
8.2268;892.47;896.38
8.2307;890.52;894.43
8.2346;888.56;892.47
8.2385;886.61;890.52
8.2424;884.65;888.56
8.2463;882.70;886.61
8.2502;880.74;884.65
8.2541;878.79;882.70
8.2581;876.83;880.74
8.2620;874.88;878.79
8.2659;872.92;878.79
8.2698;870.97;874.88
8.2737;869.01;874.88
8.2776;867.06;870.97
8.2815;865.10;869.01
8.2854;863.15;867.06
8.2893;861.19;865.10
8.2932;859.24;863.15
8.2972;857.28;863.15
8.3011;855.33;859.24
8.3050;853.37;859.24
8.3089;851.42;857.28
8.3128;849.46;855.33
8.3167;847.51;853.37
8.3206;845.55;851.42
8.3245;843.60;849.46
8.3284;841.64;847.51
8.3323;839.69;845.55
8.3363;837.73;843.60
8.3402;835.78;841.64
8.3441;833.82;837.73
8.3480;831.87;837.73
8.3519;829.91;835.78
8.3558;827.96;833.82
8.3597;826.00;831.87
8.3636;824.05;829.91
8.3675;822.09;827.96
8.3714;820.14;826.00
8.3754;818.18;824.05
8.3793;816.23;822.09
8.3832;814.27;820.14
8.3871;812.32;818.18
8.3910;810.36;816.23
8.3949;808.41;814.27
8.3988;806.45;812.32
8.4027;804.50;808.41
8.4066;802.54;808.41
8.4105;800.59;806.45
8.4145;798.63;804.50
8.4184;796.68;802.54
8.4223;794.72;800.59
8.4262;792.77;798.63
8.4301;790.81;796.68
8.4340;788.86;794.72
8.4379;786.90;792.77
8.4418;784.95;790.81
8.4457;782.99;788.86
8.4497;781.04;786.90
8.4536;779.08;786.90
8.4575;777.13;784.95
8.4614;775.17;781.04
8.4653;773.22;781.04
8.4692;771.26;779.08
8.4731;769.31;777.13
8.4770;767.35;773.22
8.4809;765.40;771.26
8.4848;763.44;769.31
8.4888;761.49;769.31
8.4927;759.53;765.40
8.4966;757.58;765.40
8.5005;755.62;761.49
8.5044;753.67;761.49
8.5083;751.71;759.53
8.5122;749.76;757.58
8.5161;747.80;755.62
8.5200;745.85;753.67
8.5239;743.89;749.76
8.5279;741.94;749.76
8.5318;739.98;745.85
8.5357;738.03;745.85
8.5396;736.07;743.89
8.5435;734.12;741.94
8.5474;732.16;739.98
8.5513;730.21;738.03
8.5552;728.25;736.07
8.5591;726.30;734.12
8.5630;724.34;732.16
8.5670;722.39;730.21
8.5709;720.43;730.21
8.5748;718.48;726.30
8.5787;716.52;726.30
8.5826;714.57;722.39
8.5865;712.61;720.43
8.5904;710.65;718.48
8.5943;708.70;716.52
8.5982;706.74;714.57
8.6021;704.79;714.57
8.6061;702.83;710.65
8.6100;700.88;710.65
8.6139;698.92;706.74
8.6178;696.97;704.79
8.6217;695.01;704.79
8.6256;693.06;702.83
8.6295;691.10;698.92
8.6334;689.15;696.97
8.6373;687.19;696.97
8.6412;685.24;693.06
8.6452;683.28;691.10
8.6491;681.33;691.10
8.6530;679.37;689.15
8.6569;677.42;687.19
8.6608;675.46;685.24
8.6647;673.51;683.28
8.6686;671.55;681.33
8.6725;669.60;679.37
8.6764;667.64;677.42
8.6803;665.69;675.46
8.6843;663.73;673.51
8.6882;661.78;671.55
8.6921;659.82;671.55
8.6960;657.87;667.64
8.6999;655.91;665.69
8.7038;653.96;663.73
8.7077;652.00;661.78
8.7116;650.05;659.82
8.7155;648.09;657.87
8.7194;646.14;655.91
8.7234;644.18;653.96
8.7273;642.23;652.00
8.7312;640.27;650.05
8.7351;638.32;648.09
8.7390;636.36;646.14
8.7429;634.41;644.18
8.7468;632.45;642.23
8.7507;630.50;642.23
8.7546;628.54;640.27
8.7585;626.59;636.36
8.7625;624.63;634.41
8.7664;622.68;632.45
8.7703;620.72;630.50
8.7742;618.77;630.50
8.7781;616.81;628.54
8.7820;614.86;624.63
8.7859;612.90;624.63
8.7898;610.95;622.68
8.7937;608.99;620.72
8.7976;607.04;618.77
8.8016;605.08;614.86
8.8055;603.13;612.90
8.8094;601.17;612.90
8.8133;599.22;608.99
8.8172;597.26;608.99
8.8211;595.31;607.04
8.8250;593.35;605.08
8.8289;591.40;603.13
8.8328;589.44;601.17
8.8367;587.49;599.22
8.8407;585.53;597.26
8.8446;583.58;595.31
8.8485;581.62;593.35
8.8524;579.67;591.40
8.8563;577.71;589.44
8.8602;575.76;587.49
8.8641;573.80;585.53
8.8680;571.85;585.53
8.8719;569.89;581.62
8.8758;567.94;579.67
8.8798;565.98;577.71
8.8837;564.03;575.76
8.8876;562.07;575.76
8.8915;560.12;573.80
8.8954;558.16;569.89
8.8993;556.21;569.89
8.9032;554.25;565.98
8.9071;552.30;565.98
8.9110;550.34;564.03
8.9149;548.39;562.07
8.9189;546.43;558.16
8.9228;544.48;556.21
8.9267;542.52;556.21
8.9306;540.57;554.25
8.9345;538.61;552.30
8.9384;536.66;550.34
8.9423;534.70;548.39
8.9462;532.75;546.43
8.9501;530.79;544.48
8.9540;528.84;542.52
8.9580;526.88;542.52
8.9619;524.93;538.61
8.9658;522.97;536.66
8.9697;521.02;534.70
8.9736;519.06;534.70
8.9775;517.11;530.79
8.9814;515.15;530.79
8.9853;513.20;526.88
8.9892;511.24;526.88
8.9931;509.29;522.97
8.9971;507.33;521.02
9.0010;505.38;521.02
9.0049;503.42;517.11
9.0088;501.47;517.11
9.0127;499.51;513.20
9.0166;497.56;513.20
9.0205;495.60;511.24
9.0244;493.65;509.29
9.0283;491.69;507.33
9.0322;489.74;503.42
9.0362;487.78;501.47
9.0401;485.83;499.51
9.0440;483.87;499.51
9.0479;481.92;497.56
9.0518;479.96;493.65
9.0557;478.01;493.65
9.0596;476.05;489.74
9.0635;474.10;489.74
9.0674;472.14;485.83
9.0714;470.19;483.87
9.0753;468.23;483.87
9.0792;466.28;481.92
9.0831;464.32;478.01
9.0870;462.37;476.05
9.0909;460.41;476.05
9.0948;458.46;474.10
9.0987;456.50;470.19
9.1026;454.55;468.23
9.1065;452.59;468.23
9.1105;450.64;466.28
9.1144;448.68;464.32
9.1183;446.73;462.37
9.1222;444.77;460.41
9.1261;442.82;458.46
9.1300;440.86;456.50
9.1339;438.91;454.55
9.1378;436.95;452.59
9.1417;435.00;450.64
9.1456;433.04;448.68
9.1496;431.09;446.73
9.1535;429.13;444.77
9.1574;427.17;442.82
9.1613;425.22;440.86
9.1652;423.26;438.91
9.1691;421.31;436.95
9.1730;419.35;435.00
9.1769;417.40;433.04
9.1808;415.44;431.09
9.1847;413.49;429.13
9.1887;411.53;429.13
9.1926;409.58;425.22
9.1965;407.62;425.22
9.2004;405.67;423.26
9.2043;403.71;421.31
9.2082;401.76;419.35
9.2121;399.80;417.40
9.2160;397.85;415.44
9.2199;395.89;413.49
9.2238;393.94;409.58
9.2278;391.98;409.58
9.2317;390.03;407.62
9.2356;388.07;405.67
9.2395;386.12;403.71
9.2434;384.16;401.76
9.2473;382.21;397.85
9.2512;380.25;395.89
9.2551;378.30;393.94
9.2590;376.34;393.94
9.2629;374.39;391.98
9.2669;372.43;390.03
9.2708;370.48;388.07
9.2747;368.52;388.07
9.2786;366.57;384.16
9.2825;364.61;382.21
9.2864;362.66;380.25
9.2903;360.70;378.30
9.2942;358.75;378.30
9.2981;356.79;374.39
9.3020;354.84;374.39
9.3060;352.88;370.48
9.3099;350.93;368.52
9.3138;348.97;366.57
9.3177;347.02;364.61
9.3216;345.06;364.61
9.3255;343.11;360.70
9.3294;341.15;358.75
9.3333;339.20;358.75
9.3372;337.24;356.79
9.3411;335.29;352.88
9.3451;333.33;352.88
9.3490;331.38;350.93
9.3529;329.42;347.02
9.3568;327.47;347.02
9.3607;325.51;343.11
9.3646;323.56;343.11
9.3685;321.60;341.15
9.3724;319.65;337.24
9.3763;317.69;335.29
9.3802;315.74;333.33
9.3842;313.78;333.33
9.3881;311.83;331.38
9.3920;309.87;329.42
9.3959;307.92;327.47
9.3998;305.96;323.56
9.4037;304.01;321.60
9.4076;302.05;319.65
9.4115;300.10;319.65
9.4154;298.14;317.69
9.4193;296.19;315.74
9.4233;294.23;315.74
9.4272;292.28;311.83
9.4311;290.32;309.87
9.4350;288.37;307.92
9.4389;286.41;304.01
9.4428;284.46;304.01
9.4467;282.50;302.05
9.4506;280.55;300.10
9.4545;278.59;300.10
9.4584;276.64;296.19
9.4624;274.68;294.23
9.4663;272.73;292.28
9.4702;270.77;288.37
9.4741;268.82;290.32
9.4780;266.86;286.41
9.4819;264.91;284.46
9.4858;262.95;282.50
9.4897;261.00;280.55
9.4936;259.04;278.59
9.4975;257.09;276.64
9.5015;255.13;274.68
9.5054;253.18;272.73
9.5093;251.22;270.77
9.5132;249.27;268.82
9.5171;247.31;268.82
9.5210;245.36;266.86
9.5249;243.40;264.91
9.5288;241.45;262.95
9.5327;239.49;261.00
9.5366;237.54;257.09
9.5406;235.58;257.09
9.5445;233.63;255.13
9.5484;231.67;253.18
9.5523;229.72;249.27
9.5562;227.76;247.31
9.5601;225.81;247.31
9.5640;223.85;245.36
9.5679;221.90;243.40
9.5718;219.94;241.45
9.5757;217.99;239.49
9.5797;216.03;237.54
9.5836;214.08;235.58
9.5875;212.12;233.63
9.5914;210.17;231.67
9.5953;208.21;229.72
9.5992;206.26;227.76
9.6031;204.30;225.81
9.6070;202.35;223.85
9.6109;200.39;221.90
9.6148;198.44;219.94
9.6188;196.48;217.99
9.6227;194.53;214.08
9.6266;192.57;214.08
9.6305;190.62;212.12
9.6344;188.66;210.17
9.6383;186.71;210.17
9.6422;184.75;204.30
9.6461;182.80;204.30
9.6500;180.84;202.35
9.6540;178.89;200.39
9.6579;176.93;198.44
9.6618;174.98;196.48
9.6657;173.02;192.57
9.6696;171.07;192.57
9.6735;169.11;190.62
9.6774;167.16;188.66
9.6813;165.20;186.71
9.6852;163.25;184.75
9.6891;161.29;182.80
9.6931;159.34;180.84
9.6970;157.38;178.89
9.7009;155.43;176.93
9.7048;153.47;174.98
9.7087;151.52;171.07
9.7126;149.56;171.07
9.7165;147.61;169.11
9.7204;145.65;169.11
9.7243;143.70;165.20
9.7282;141.74;165.20
9.7322;139.78;163.25
9.7361;137.83;159.34
9.7400;135.87;159.34
9.7439;133.92;157.38
9.7478;131.96;155.43
9.7517;130.01;153.47
9.7556;128.05;149.56
9.7595;126.10;149.56
9.7634;124.14;145.65
9.7673;122.19;145.65
9.7713;120.23;143.70
9.7752;118.28;139.78
9.7791;116.32;139.78
9.7830;114.37;137.83
9.7869;112.41;135.87
9.7908;110.46;133.92
9.7947;108.50;131.96
9.7986;106.55;128.05
9.8025;104.59;128.05
9.8064;102.64;126.10
9.8104;100.68;124.14
9.8143;98.73;118.28
9.8182;96.77;69.40
9.8221;94.82;118.28
9.8260;92.86;114.37
9.8299;90.91;63.54
9.8338;88.95;110.46
9.8377;87.00;106.55
9.8416;85.04;59.63
9.8455;83.09;106.55
9.8495;81.13;100.68
9.8534;79.18;53.76
9.8573;77.22;100.68
9.8612;75.27;96.77
9.8651;73.31;47.90
9.8690;71.36;90.91
9.8729;69.40;47.90
9.8768;67.45;87.00
9.8807;65.49;43.99
9.8846;63.54;83.09
9.8886;61.58;38.12
9.8925;59.63;79.18
9.8964;57.67;36.17
9.9003;55.72;77.22
9.9042;53.76;32.26
9.9081;51.81;71.36
9.9120;49.85;26.39
9.9159;47.90;69.40
9.9198;45.94;24.44
9.9237;43.99;65.49
9.9277;42.03;20.53
9.9316;40.08;59.63
9.9355;38.12;16.62
9.9394;36.17;55.72
9.9433;34.21;14.66
9.9472;32.26;51.81
9.9511;30.30;8.80
9.9550;28.35;2.93
9.9589;26.39;47.90
9.9628;24.44;4.89
9.9668;22.48;-2.93
9.9707;20.53;45.94
9.9746;18.57;-6.84
9.9785;16.62;40.08
9.9824;14.66;-8.80
9.9863;12.71;36.17
9.9902;10.75;-12.71
9.9941;8.80;34.21
9.9980;6.84;-12.71
10.0019;4.89;30.30
10.0059;2.93;-20.53
10.0098;0.98;-18.57
10.0137;-0.98;-22.48
10.0176;-2.93;-24.44
10.0215;-4.89;-24.44
10.0254;-6.84;-28.35
10.0293;-8.80;-30.30
10.0332;-10.75;-34.21
10.0371;-12.71;8.80
10.0410;-14.66;-38.12
10.0450;-16.62;4.89
10.0489;-18.57;-42.03
10.0528;-20.53;0.98
10.0567;-22.48;-45.94
10.0606;-24.44;-4.89
10.0645;-26.39;-4.89
10.0684;-28.35;-6.84
10.0723;-30.30;-8.80
10.0762;-32.26;-12.71
10.0801;-34.21;-8.80
10.0841;-36.17;-12.71
10.0880;-38.12;-55.72
10.0919;-40.08;-63.54
10.0958;-42.03;-20.53
10.0997;-43.99;-16.62
10.1036;-45.94;-65.49
10.1075;-47.90;-73.31
10.1114;-49.85;-26.39
10.1153;-51.81;-24.44
10.1192;-53.76;-73.31
10.1232;-55.72;-79.18
10.1271;-57.67;-36.17
10.1310;-59.63;-34.21
10.1349;-61.58;-81.13
10.1388;-63.54;-87.00
10.1427;-65.49;-43.99
10.1466;-67.45;-42.03
10.1505;-69.40;-87.00
10.1544;-71.36;-92.86
10.1583;-73.31;-51.81
10.1623;-75.27;-49.85
10.1662;-77.22;-96.77
10.1701;-79.18;-100.68
10.1740;-81.13;-55.72
10.1779;-83.09;-102.64
10.1818;-85.04;-65.49
10.1857;-87.00;-59.63
10.1896;-88.95;-106.55
10.1935;-90.91;-69.40
10.1974;-92.86;-67.45
10.2014;-94.82;-112.41
10.2053;-96.77;-75.27
10.2092;-98.73;-71.36
10.2131;-100.68;-122.19
10.2170;-102.64;-122.19
10.2209;-104.59;-79.18
10.2248;-106.55;-130.01
10.2287;-108.50;-126.10
10.2326;-110.46;-85.04
10.2365;-112.41;-131.96
10.2405;-114.37;-131.96
10.2444;-116.32;-88.95
10.2483;-118.28;-137.83
10.2522;-120.23;-141.74
10.2561;-122.19;-94.82
10.2600;-124.14;-145.65
10.2639;-126.10;-143.70
10.2678;-128.05;-100.68
10.2717;-130.01;-108.50
10.2757;-131.96;-151.52
10.2796;-133.92;-151.52
10.2835;-135.87;-108.50
10.2874;-137.83;-116.32
10.2913;-139.78;-161.29
10.2952;-141.74;-157.38
10.2991;-143.70;-116.32
10.3030;-145.65;-124.14
10.3069;-147.61;-167.16
10.3108;-149.56;-165.20
10.3148;-151.52;-122.19
10.3187;-153.47;-130.01
10.3226;-155.43;-176.93
10.3265;-157.38;-176.93
10.3304;-159.34;-130.01
10.3343;-161.29;-139.78
10.3382;-163.25;-184.75
10.3421;-165.20;-180.84
10.3460;-167.16;-137.83
10.3499;-169.11;-147.61
10.3539;-171.07;-190.62
10.3578;-173.02;-188.66
10.3617;-174.98;-145.65
10.3656;-176.93;-159.34
10.3695;-178.89;-198.44
10.3734;-180.84;-198.44
10.3773;-182.80;-153.47
10.3812;-184.75;-176.93
10.3851;-186.71;-208.21
10.3890;-188.66;-204.30
10.3930;-190.62;-161.29
10.3969;-192.57;-206.26
10.4008;-194.53;-216.03
10.4047;-196.48;-212.12
10.4086;-198.44;-171.07
10.4125;-200.39;-221.90
10.4164;-202.35;-219.94
10.4203;-204.30;-219.94
10.4242;-206.26;-176.93
10.4281;-208.21;-227.76
10.4321;-210.17;-227.76
10.4360;-212.12;-229.72
10.4399;-214.08;-186.71
10.4438;-216.03;-237.54
10.4477;-217.99;-235.58
10.4516;-219.94;-235.58
10.4555;-221.90;-190.62
10.4594;-223.85;-243.40
10.4633;-225.81;-243.40
10.4672;-227.76;-243.40
10.4712;-229.72;-200.39
10.4751;-231.67;-255.13
10.4790;-233.63;-251.22
10.4829;-235.58;-251.22
10.4868;-237.54;-208.21
10.4907;-239.49;-259.04
10.4946;-241.45;-261.00
10.4985;-243.40;-259.04
10.5024;-245.36;-216.03
10.5063;-247.31;-266.86
10.5103;-249.27;-266.86
10.5142;-251.22;-264.91
10.5181;-253.18;-223.85
10.5220;-255.13;-274.68
10.5259;-257.09;-274.68
10.5298;-259.04;-272.73
10.5337;-261.00;-229.72
10.5376;-262.95;-282.50
10.5415;-264.91;-280.55
10.5454;-266.86;-280.55
10.5494;-268.82;-237.54
10.5533;-270.77;-290.32
10.5572;-272.73;-288.37
10.5611;-274.68;-288.37
10.5650;-276.64;-245.36
10.5689;-278.59;-298.14
10.5728;-280.55;-298.14
10.5767;-282.50;-296.19
10.5806;-284.46;-257.09
10.5845;-286.41;-307.92
10.5885;-288.37;-304.01
10.5924;-290.32;-304.01
10.5963;-292.28;-261.00
10.6002;-294.23;-311.83
10.6041;-296.19;-313.78
10.6080;-298.14;-309.87
10.6119;-300.10;-268.82
10.6158;-302.05;-319.65
10.6197;-304.01;-319.65
10.6236;-305.96;-319.65
10.6276;-307.92;-274.68
10.6315;-309.87;-327.47
10.6354;-311.83;-329.42
10.6393;-313.78;-325.51
10.6432;-315.74;-286.41
10.6471;-317.69;-335.29
10.6510;-319.65;-335.29
10.6549;-321.60;-337.24
10.6588;-323.56;-292.28
10.6627;-325.51;-343.11
10.6667;-327.47;-343.11
10.6706;-329.42;-343.11
10.6745;-331.38;-300.10
10.6784;-333.33;-352.88
10.6823;-335.29;-348.97
10.6862;-337.24;-350.93
10.6901;-339.20;-307.92
10.6940;-341.15;-358.75
10.6979;-343.11;-358.75
10.7018;-345.06;-358.75
10.7058;-347.02;-317.69
10.7097;-348.97;-364.61
10.7136;-350.93;-364.61
10.7175;-352.88;-364.61
10.7214;-354.84;-321.60
10.7253;-356.79;-372.43
10.7292;-358.75;-372.43
10.7331;-360.70;-374.39
10.7370;-362.66;-331.38
10.7409;-364.61;-380.25
10.7449;-366.57;-380.25
10.7488;-368.52;-380.25
10.7527;-370.48;-337.24
10.7566;-372.43;-388.07
10.7605;-374.39;-388.07
10.7644;-376.34;-388.07
10.7683;-378.30;-347.02
10.7722;-380.25;-395.89
10.7761;-382.21;-397.85
10.7800;-384.16;-395.89
10.7840;-386.12;-352.88
10.7879;-388.07;-405.67
10.7918;-390.03;-403.71
10.7957;-391.98;-401.76
10.7996;-393.94;-358.75
10.8035;-395.89;-411.53
10.8074;-397.85;-413.49
10.8113;-399.80;-411.53
10.8152;-401.76;-370.48
10.8191;-403.71;-419.35
10.8231;-405.67;-417.40
10.8270;-407.62;-421.31
10.8309;-409.58;-376.34
10.8348;-411.53;-427.18
10.8387;-413.49;-427.18
10.8426;-415.44;-425.22
10.8465;-417.40;-384.16
10.8504;-419.35;-433.04
10.8543;-421.31;-436.95
10.8583;-423.26;-433.04
10.8622;-425.22;-395.89
10.8661;-427.18;-442.82
10.8700;-429.13;-440.86
10.8739;-431.09;-440.86
10.8778;-433.04;-399.80
10.8817;-435.00;-450.64
10.8856;-436.95;-452.59
10.8895;-438.91;-448.68
10.8934;-440.86;-407.62
10.8974;-442.82;-458.46
10.9013;-444.77;-456.50
10.9052;-446.73;-456.50
10.9091;-448.68;-413.49
10.9130;-450.64;-464.32
10.9169;-452.59;-466.28
10.9208;-454.55;-464.32
10.9247;-456.50;-421.31
10.9286;-458.46;-472.14
10.9325;-460.41;-472.14
10.9365;-462.37;-474.10
10.9404;-464.32;-429.13
10.9443;-466.28;-479.96
10.9482;-468.23;-478.01
10.9521;-470.19;-478.01
10.9560;-472.14;-436.95
10.9599;-474.10;-489.74
10.9638;-476.05;-487.78
10.9677;-478.01;-485.83
10.9716;-479.96;-444.77
10.9756;-481.92;-497.56
10.9795;-483.87;-493.65
10.9834;-485.83;-493.65
10.9873;-487.78;-454.55
10.9912;-489.74;-501.47
10.9951;-491.69;-501.47
10.9990;-493.65;-503.42
11.0029;-495.60;-462.37
11.0068;-497.56;-509.29
11.0107;-499.51;-511.24
11.0147;-501.47;-509.29
11.0186;-503.42;-468.23
11.0225;-505.38;-515.15
11.0264;-507.33;-517.11
11.0303;-509.29;-519.06
11.0342;-511.24;-476.05
11.0381;-513.20;-528.84
11.0420;-515.15;-524.93
11.0459;-517.11;-524.93
11.0498;-519.06;-483.87
11.0538;-521.02;-534.70
11.0577;-522.97;-534.70
11.0616;-524.93;-530.79
11.0655;-526.88;-493.65
11.0694;-528.84;-542.52
11.0733;-530.79;-540.57
11.0772;-532.75;-542.52
11.0811;-534.70;-501.47
11.0850;-536.66;-548.39
11.0889;-538.61;-548.39
11.0929;-540.57;-546.43
11.0968;-542.52;-507.33
11.1007;-544.48;-556.21
11.1046;-546.43;-556.21
11.1085;-548.39;-558.16
11.1124;-550.34;-515.15
11.1163;-552.30;-564.03
11.1202;-554.25;-565.98
11.1241;-556.21;-564.03
11.1280;-558.16;-521.02
11.1320;-560.12;-569.89
11.1359;-562.07;-569.89
11.1398;-564.03;-573.80
11.1437;-565.98;-530.79
11.1476;-567.94;-579.67
11.1515;-569.89;-577.71
11.1554;-571.85;-579.67
11.1593;-573.80;-538.61
11.1632;-575.76;-585.53
11.1671;-577.71;-587.49
11.1711;-579.67;-585.53
11.1750;-581.62;-544.48
11.1789;-583.58;-597.26
11.1828;-585.53;-593.35
11.1867;-587.49;-593.35
11.1906;-589.44;-552.30
11.1945;-591.40;-603.13
11.1984;-593.35;-601.17
11.2023;-595.31;-601.17
11.2062;-597.26;-558.16
11.2102;-599.22;-607.04
11.2141;-601.17;-608.99
11.2180;-603.13;-608.99
11.2219;-605.08;-569.89
11.2258;-607.04;-614.86
11.2297;-608.99;-616.81
11.2336;-610.95;-616.81
11.2375;-612.90;-573.80
11.2414;-614.86;-622.68
11.2453;-616.81;-624.63
11.2493;-618.77;-628.54
11.2532;-620.72;-587.49
11.2571;-622.68;-630.50
11.2610;-624.63;-630.50
11.2649;-626.59;-634.41
11.2688;-628.54;-593.35
11.2727;-630.50;-638.32
11.2766;-632.45;-638.32
11.2805;-634.41;-640.27
11.2844;-636.36;-595.31
11.2884;-638.32;-646.14
11.2923;-640.27;-648.09
11.2962;-642.23;-648.09
11.3001;-644.18;-608.99
11.3040;-646.14;-655.91
11.3079;-648.09;-655.91
11.3118;-650.05;-653.96
11.3157;-652.00;-614.86
11.3196;-653.96;-663.73
11.3235;-655.91;-661.78
11.3275;-657.87;-663.73
11.3314;-659.82;-622.68
11.3353;-661.78;-671.55
11.3392;-663.73;-671.55
11.3431;-665.69;-669.60
11.3470;-667.64;-630.50
11.3509;-669.60;-679.37
11.3548;-671.55;-675.46
11.3587;-673.51;-677.42
11.3626;-675.46;-644.18
11.3666;-677.42;-685.24
11.3705;-679.37;-685.24
11.3744;-681.33;-687.19
11.3783;-683.28;-655.91
11.3822;-685.24;-693.06
11.3861;-687.19;-693.06
11.3900;-689.15;-693.06
11.3939;-691.10;-679.37
11.3978;-693.06;-698.92
11.4017;-695.01;-700.88
11.4057;-696.97;-700.88
11.4096;-698.92;-704.79
11.4135;-700.88;-706.74
11.4174;-702.83;-708.70
11.4213;-704.79;-708.70
11.4252;-706.74;-712.61
11.4291;-708.70;-714.57
11.4330;-710.66;-716.52
11.4369;-712.61;-718.48
11.4408;-714.57;-724.34
11.4448;-716.52;-722.39
11.4487;-718.48;-726.30
11.4526;-720.43;-724.34
11.4565;-722.39;-730.21
11.4604;-724.34;-732.16
11.4643;-726.30;-732.16
11.4682;-728.25;-734.12
11.4721;-730.21;-738.03
11.4760;-732.16;-736.07
11.4800;-734.12;-738.03
11.4839;-736.07;-739.98
11.4878;-738.03;-743.89
11.4917;-739.98;-749.76
11.4956;-741.94;-745.85
11.4995;-743.89;-747.80
11.5034;-745.85;-751.71
11.5073;-747.80;-753.67
11.5112;-749.76;-753.67
11.5151;-751.71;-755.62
11.5191;-753.67;-761.49
11.5230;-755.62;-759.53
11.5269;-757.58;-765.40
11.5308;-759.53;-763.44
11.5347;-761.49;-771.26
11.5386;-763.44;-767.35
11.5425;-765.40;-769.31
11.5464;-767.35;-773.22
11.5503;-769.31;-775.17
11.5542;-771.26;-781.04
11.5582;-773.22;-777.13
11.5621;-775.17;-779.08
11.5660;-777.13;-784.95
11.5699;-779.08;-784.95
11.5738;-781.04;-784.95
11.5777;-782.99;-786.90
11.5816;-784.95;-790.81
11.5855;-786.90;-790.81
11.5894;-788.86;-792.77
11.5933;-790.81;-794.72
11.5973;-792.77;-798.63
11.6012;-794.72;-798.63
11.6051;-796.68;-798.63
11.6090;-798.63;-800.59
11.6129;-800.59;-806.45
11.6168;-802.54;-804.50
11.6207;-804.50;-806.45
11.6246;-806.45;-812.32
11.6285;-808.41;-812.32
11.6324;-810.36;-816.23
11.6364;-812.32;-816.23
11.6403;-814.27;-818.18
11.6442;-816.23;-824.05
11.6481;-818.18;-822.09
11.6520;-820.14;-820.14
11.6559;-822.09;-824.05
11.6598;-824.05;-826.00
11.6637;-826.00;-829.91
11.6676;-827.96;-831.87
11.6715;-829.91;-831.87
11.6755;-831.87;-835.78
11.6794;-833.82;-835.78
11.6833;-835.78;-837.73
11.6872;-837.73;-839.69
11.6911;-839.69;-843.60
11.6950;-841.64;-845.55
11.6989;-843.60;-847.51
11.7028;-845.55;-849.46
11.7067;-847.51;-851.42
11.7106;-849.46;-853.37
11.7146;-851.42;-853.37
11.7185;-853.37;-855.33
11.7224;-855.33;-859.24
11.7263;-857.28;-859.24
11.7302;-859.24;-865.10
11.7341;-861.19;-863.15
11.7380;-863.15;-869.01
11.7419;-865.10;-872.92
11.7458;-867.06;-869.01
11.7497;-869.01;-874.88
11.7537;-870.97;-874.88
11.7576;-872.92;-874.88
11.7615;-874.88;-876.83
11.7654;-876.83;-880.74
11.7693;-878.79;-882.70
11.7732;-880.74;-884.65
11.7771;-882.70;-884.65
11.7810;-884.65;-886.61
11.7849;-886.61;-890.52
11.7888;-888.56;-890.52
11.7928;-890.52;-892.47
11.7967;-892.47;-894.43
11.8006;-894.43;-896.38
11.8045;-896.38;-898.34
11.8084;-898.34;-902.25
11.8123;-900.29;-902.25
11.8162;-902.25;-908.11
11.8201;-904.20;-908.11
11.8240;-906.16;-908.11
11.8279;-908.11;-912.02
11.8319;-910.07;-912.02
11.8358;-912.02;-917.89
11.8397;-913.98;-915.93
11.8436;-915.93;-915.93
11.8475;-917.89;-919.84
11.8514;-919.84;-921.80
11.8553;-921.80;-921.80
11.8592;-923.75;-925.71
11.8631;-925.71;-927.66
11.8670;-927.66;-929.62
11.8710;-929.62;-929.62
11.8749;-931.57;-931.57
11.8788;-933.53;-937.44
11.8827;-935.48;-937.44
11.8866;-937.44;-939.39
11.8905;-939.39;-939.39
11.8944;-941.35;-943.30
11.8983;-943.30;-943.30
11.9022;-945.26;-947.21
11.9061;-947.21;-947.21
11.9101;-949.17;-951.12
11.9140;-951.12;-953.08
11.9179;-953.08;-955.03
11.9218;-955.03;-953.08
11.9257;-956.99;-962.85
11.9296;-958.94;-960.90
11.9335;-960.90;-960.90
11.9374;-962.85;-962.85
11.9413;-964.81;-966.76
11.9452;-966.76;-968.72
11.9492;-968.72;-972.63
11.9531;-970.67;-970.67
11.9570;-972.63;-974.58
11.9609;-974.58;-974.58
11.9648;-976.54;-978.49
11.9687;-978.49;-978.49
11.9726;-980.45;-980.45
11.9765;-982.40;-982.40
11.9804;-984.36;-984.36
11.9843;-986.31;-984.36
11.9883;-988.27;-988.27
11.9922;-990.22;-990.22
11.9961;-992.18;-990.22
12.0000;-994.13;-996.09
12.0039;-996.09;-996.09
12.0078;-998.05;-1000.00
12.0117;-1000.00;-998.05
12.0156;-1000.00;-1000.00
12.0195;-998.05;-998.05
12.0234;-996.09;-996.09
12.0274;-994.13;-994.13
12.0313;-992.18;-992.18
12.0352;-990.22;-990.22
12.0391;-988.27;-992.18
12.0430;-986.31;-988.27
12.0469;-984.36;-984.36
12.0508;-982.40;-986.31
12.0547;-980.45;-980.45
12.0586;-978.49;-980.45
12.0626;-976.54;-980.45
12.0665;-974.58;-976.54
12.0704;-972.63;-976.54
12.0743;-970.67;-970.67
12.0782;-968.72;-970.67
12.0821;-966.76;-966.76
12.0860;-964.81;-964.81
12.0899;-962.85;-962.85
12.0938;-960.90;-962.85
12.0977;-958.94;-960.90
12.1017;-956.99;-958.94
12.1056;-955.03;-958.94
12.1095;-953.08;-958.94
12.1134;-951.12;-955.03
12.1173;-949.17;-951.12
12.1212;-947.21;-951.12
12.1251;-945.26;-945.26
12.1290;-943.30;-945.26
12.1329;-941.35;-941.35
12.1368;-939.39;-943.30
12.1408;-937.44;-937.44
12.1447;-935.48;-937.44
12.1486;-933.53;-937.44
12.1525;-931.57;-933.53
12.1564;-929.62;-929.62
12.1603;-927.66;-931.57
12.1642;-925.71;-927.66
12.1681;-923.75;-925.71
12.1720;-921.80;-921.80
12.1759;-919.84;-923.75
12.1799;-917.89;-919.84
12.1838;-915.93;-915.93
12.1877;-913.98;-915.93
12.1916;-912.02;-917.89
12.1955;-910.07;-912.02
12.1994;-908.11;-912.02
12.2033;-906.16;-906.16
12.2072;-904.20;-906.16
12.2111;-902.25;-906.16
12.2150;-900.29;-902.25
12.2190;-898.34;-900.29
12.2229;-896.38;-900.29
12.2268;-894.43;-898.34
12.2307;-892.47;-896.38
12.2346;-890.52;-894.43
12.2385;-888.56;-890.52
12.2424;-886.61;-890.52
12.2463;-884.65;-888.56
12.2502;-882.70;-884.65
12.2541;-880.74;-886.61
12.2581;-878.79;-880.74
12.2620;-876.83;-880.74
12.2659;-874.88;-874.88
12.2698;-872.92;-874.88
12.2737;-870.97;-874.88
12.2776;-869.01;-872.92
12.2815;-867.06;-867.06
12.2854;-865.10;-867.06
12.2893;-863.15;-869.01
12.2932;-861.19;-863.15
12.2972;-859.24;-865.10
12.3011;-857.28;-861.19
12.3050;-855.33;-859.24
12.3089;-853.37;-855.33
12.3128;-851.42;-853.37
12.3167;-849.46;-851.42
12.3206;-847.51;-853.37
12.3245;-845.55;-847.51
12.3284;-843.60;-845.55
12.3323;-841.64;-847.51
12.3363;-839.69;-843.60
12.3402;-837.73;-839.69
12.3441;-835.78;-841.64
12.3480;-833.82;-839.69
12.3519;-831.87;-835.78
12.3558;-829.91;-831.87
12.3597;-827.96;-829.91
12.3636;-826.00;-829.91
12.3675;-824.05;-827.96
12.3714;-822.09;-826.00
12.3754;-820.14;-822.09
12.3793;-818.18;-826.00
12.3832;-816.23;-820.14
12.3871;-814.27;-818.18
12.3910;-812.32;-816.23
12.3949;-810.36;-814.27
12.3988;-808.41;-816.23
12.4027;-806.45;-814.27
12.4066;-804.50;-808.41
12.4105;-802.54;-812.32
12.4145;-800.59;-804.50
12.4184;-798.63;-808.41
12.4223;-796.68;-798.63
12.4262;-794.72;-800.59
12.4301;-792.77;-800.59
12.4340;-790.81;-794.72
12.4379;-788.86;-790.81
12.4418;-786.90;-792.77
12.4457;-784.95;-790.81
12.4496;-782.99;-786.90
12.4536;-781.04;-784.95
12.4575;-779.08;-784.95
12.4614;-777.13;-782.99
12.4653;-775.17;-781.04
12.4692;-773.22;-777.13
12.4731;-771.26;-779.08
12.4770;-769.31;-773.22
12.4809;-767.35;-771.26
12.4848;-765.40;-771.26
12.4887;-763.44;-769.31
12.4927;-761.49;-767.35
12.4966;-759.53;-763.44
12.5005;-757.58;-759.53
12.5044;-755.62;-763.44
12.5083;-753.67;-761.49
12.5122;-751.71;-757.58
12.5161;-749.76;-755.62
12.5200;-747.80;-755.62
12.5239;-745.85;-749.76
12.5278;-743.89;-749.76
12.5318;-741.94;-745.85
12.5357;-739.98;-745.85
12.5396;-738.03;-743.89
12.5435;-736.07;-738.03
12.5474;-734.12;-738.03
12.5513;-732.16;-738.03
12.5552;-730.21;-736.07
12.5591;-728.25;-736.07
12.5630;-726.30;-730.21
12.5669;-724.34;-732.16
12.5709;-722.39;-728.25
12.5748;-720.43;-724.34
12.5787;-718.48;-724.34
12.5826;-716.52;-724.34
12.5865;-714.57;-720.43
12.5904;-712.61;-716.52
12.5943;-710.66;-716.52
12.5982;-708.70;-716.52
12.6021;-706.74;-714.57
12.6060;-704.79;-710.66
12.6100;-702.83;-708.70
12.6139;-700.88;-710.66
12.6178;-698.92;-706.74
12.6217;-696.97;-700.88
12.6256;-695.01;-702.83
12.6295;-693.06;-691.10
12.6334;-691.10;-698.92
12.6373;-689.15;-698.92
12.6412;-687.19;-693.06
12.6451;-685.24;-661.78
12.6491;-683.28;-691.10
12.6530;-681.33;-687.19
12.6569;-679.37;-683.28
12.6608;-677.42;-644.18
12.6647;-675.46;-683.28
12.6686;-673.51;-679.37
12.6725;-671.55;-679.37
12.6764;-669.60;-636.36
12.6803;-667.64;-675.46
12.6843;-665.69;-669.60
12.6882;-663.73;-669.60
12.6921;-661.78;-626.59
12.6960;-659.82;-667.64
12.6999;-657.87;-665.69
12.7038;-655.91;-661.78
12.7077;-653.96;-616.81
12.7116;-652.00;-665.69
12.7155;-650.05;-657.87
12.7194;-648.09;-653.96
12.7234;-646.14;-608.99
12.7273;-644.18;-652.00
12.7312;-642.23;-650.05
12.7351;-640.27;-648.09
12.7390;-638.32;-601.17
12.7429;-636.36;-648.09
12.7468;-634.41;-640.27
12.7507;-632.45;-640.27
12.7546;-630.50;-591.40
12.7585;-628.54;-638.32
12.7625;-626.59;-634.41
12.7664;-624.63;-630.50
12.7703;-622.68;-585.53
12.7742;-620.72;-630.50
12.7781;-618.77;-626.59
12.7820;-616.81;-622.68
12.7859;-614.86;-577.71
12.7898;-612.90;-620.72
12.7937;-610.95;-618.77
12.7976;-608.99;-614.86
12.8016;-607.04;-569.89
12.8055;-605.08;-614.86
12.8094;-603.13;-612.90
12.8133;-601.17;-608.99
12.8172;-599.22;-562.07
12.8211;-597.26;-608.99
12.8250;-595.31;-603.13
12.8289;-593.35;-601.17
12.8328;-591.40;-556.21
12.8367;-589.44;-599.22
12.8407;-587.49;-599.22
12.8446;-585.53;-591.40
12.8485;-583.58;-548.39
12.8524;-581.62;-593.35
12.8563;-579.67;-589.44
12.8602;-577.71;-587.49
12.8641;-575.76;-540.57
12.8680;-573.80;-583.58
12.8719;-571.85;-581.62
12.8758;-569.89;-575.76
12.8798;-567.94;-532.75
12.8837;-565.98;-577.71
12.8876;-564.03;-571.85
12.8915;-562.07;-569.89
12.8954;-560.12;-524.93
12.8993;-558.16;-569.89
12.9032;-556.21;-565.98
12.9071;-554.25;-564.03
12.9110;-552.30;-517.11
12.9149;-550.34;-560.12
12.9189;-548.39;-560.12
12.9228;-546.43;-554.25
12.9267;-544.48;-509.29
12.9306;-542.52;-552.30
12.9345;-540.57;-552.30
12.9384;-538.61;-544.48
12.9423;-536.66;-499.51
12.9462;-534.70;-544.48
12.9501;-532.75;-542.52
12.9540;-530.79;-538.61
12.9580;-528.84;-493.65
12.9619;-526.88;-540.57
12.9658;-524.93;-532.75
12.9697;-522.97;-532.75
12.9736;-521.02;-485.83
12.9775;-519.06;-530.79
12.9814;-517.11;-526.88
12.9853;-515.15;-522.97
12.9892;-513.20;-479.96
12.9931;-511.24;-524.93
12.9971;-509.29;-519.06
13.0010;-507.33;-515.15
13.0049;-505.38;-472.14
13.0088;-503.42;-515.15
13.0127;-501.47;-511.24
13.0166;-499.51;-509.29
13.0205;-497.56;-462.37
13.0244;-495.60;-507.33
13.0283;-493.65;-505.38
13.0322;-491.69;-501.47
13.0362;-489.74;-454.55
13.0401;-487.78;-503.42
13.0440;-485.83;-495.60
13.0479;-483.87;-493.65
13.0518;-481.92;-446.73
13.0557;-479.96;-493.65
13.0596;-478.01;-489.74
13.0635;-476.05;-483.87
13.0674;-474.10;-438.91
13.0713;-472.14;-485.83
13.0753;-470.19;-481.92
13.0792;-468.23;-478.01
13.0831;-466.28;-435.00
13.0870;-464.32;-478.01
13.0909;-462.37;-476.05
13.0948;-460.41;-468.23
13.0987;-458.46;-423.26
13.1026;-456.50;-472.14
13.1065;-454.55;-466.28
13.1104;-452.59;-460.41
13.1144;-450.64;-415.44
13.1183;-448.68;-462.37
13.1222;-446.73;-458.46
13.1261;-444.77;-452.59
13.1300;-442.82;-407.62
13.1339;-440.86;-454.55
13.1378;-438.91;-452.59
13.1417;-436.95;-446.73
13.1456;-435.00;-401.76
13.1495;-433.04;-446.73
13.1535;-431.09;-444.77
13.1574;-429.13;-440.86
13.1613;-427.18;-393.94
13.1652;-425.22;-440.86
13.1691;-423.26;-435.00
13.1730;-421.31;-431.09
13.1769;-419.35;-386.12
13.1808;-417.40;-431.09
13.1847;-415.44;-429.13
13.1886;-413.49;-427.18
13.1926;-411.53;-380.25
13.1965;-409.58;-425.22
13.2004;-407.62;-423.26
13.2043;-405.67;-415.44
13.2082;-403.71;-370.48
13.2121;-401.76;-419.35
13.2160;-399.80;-411.53
13.2199;-397.85;-409.58
13.2238;-395.89;-362.66
13.2277;-393.94;-409.58
13.2317;-391.98;-407.62
13.2356;-390.03;-399.80
13.2395;-388.07;-354.84
13.2434;-386.12;-401.76
13.2473;-384.16;-397.85
13.2512;-382.21;-391.98
13.2551;-380.25;-347.02
13.2590;-378.30;-391.98
13.2629;-376.34;-390.03
13.2669;-374.39;-386.12
13.2708;-372.43;-341.15
13.2747;-370.48;-386.12
13.2786;-368.52;-380.25
13.2825;-366.57;-380.25
13.2864;-364.61;-335.29
13.2903;-362.66;-380.25
13.2942;-360.70;-378.30
13.2981;-358.75;-372.43
13.3020;-356.79;-325.51
13.3060;-354.84;-372.43
13.3099;-352.88;-366.57
13.3138;-350.93;-362.66
13.3177;-348.97;-317.69
13.3216;-347.02;-364.61
13.3255;-345.06;-358.75
13.3294;-343.11;-356.79
13.3333;-341.15;-307.92
13.3372;-339.20;-358.75
13.3411;-337.24;-354.84
13.3451;-335.29;-348.97
13.3490;-333.33;-300.10
13.3529;-331.38;-348.97
13.3568;-329.42;-343.11
13.3607;-327.47;-339.20
13.3646;-325.51;-294.23
13.3685;-323.56;-341.15
13.3724;-321.60;-337.24
13.3763;-319.65;-331.38
13.3802;-317.69;-286.41
13.3842;-315.74;-333.33
13.3881;-313.78;-329.42
13.3920;-311.83;-325.51
13.3959;-309.87;-280.55
13.3998;-307.92;-325.51
13.4037;-305.96;-321.60
13.4076;-304.01;-317.69
13.4115;-302.05;-270.77
13.4154;-300.10;-319.65
13.4193;-298.14;-313.78
13.4233;-296.19;-309.87
13.4272;-294.23;-261.00
13.4311;-292.28;-309.87
13.4350;-290.32;-307.92
13.4389;-288.37;-302.05
13.4428;-286.41;-255.13
13.4467;-284.46;-304.01
13.4506;-282.50;-298.14
13.4545;-280.55;-294.23
13.4584;-278.59;-249.27
13.4624;-276.64;-294.23
13.4663;-274.68;-292.28
13.4702;-272.73;-286.41
13.4741;-270.77;-239.49
13.4780;-268.82;-288.37
13.4819;-266.86;-284.46
13.4858;-264.91;-278.59
13.4897;-262.95;-233.63
13.4936;-261.00;-282.50
13.4975;-259.04;-276.64
13.5015;-257.09;-270.77
13.5054;-255.13;-225.81
13.5093;-253.18;-272.73
13.5132;-251.22;-268.82
13.5171;-249.27;-262.95
13.5210;-247.31;-217.99
13.5249;-245.36;-266.86
13.5288;-243.40;-261.00
13.5327;-241.45;-257.09
13.5366;-239.49;-210.17
13.5406;-237.54;-257.09
13.5445;-235.58;-253.18
13.5484;-233.63;-249.27
13.5523;-231.67;-202.35
13.5562;-229.72;-251.22
13.5601;-227.76;-245.36
13.5640;-225.81;-243.40
13.5679;-223.85;-196.48
13.5718;-221.90;-243.40
13.5757;-219.94;-237.54
13.5797;-217.99;-235.58
13.5836;-216.03;-184.75
13.5875;-214.08;-235.58
13.5914;-212.12;-233.63
13.5953;-210.17;-225.81
13.5992;-208.21;-178.89
13.6031;-206.26;-227.76
13.6070;-204.30;-223.85
13.6109;-202.35;-216.03
13.6148;-200.39;-171.07
13.6188;-198.44;-221.90
13.6227;-196.48;-216.03
13.6266;-194.53;-210.17
13.6305;-192.57;-163.25
13.6344;-190.62;-196.48
13.6383;-188.66;-208.21
13.6422;-186.71;-202.35
13.6461;-184.75;-157.38
13.6500;-182.80;-171.07
13.6539;-180.84;-202.35
13.6579;-178.89;-194.53
13.6618;-176.93;-147.61
13.6657;-174.98;-157.38
13.6696;-173.02;-194.53
13.6735;-171.07;-188.66
13.6774;-169.11;-139.78
13.6813;-167.16;-145.65
13.6852;-165.20;-184.75
13.6891;-163.25;-180.84
13.6930;-161.29;-133.92
13.6970;-159.34;-137.83
13.7009;-157.38;-174.98
13.7048;-155.43;-173.02
13.7087;-153.47;-126.10
13.7126;-151.52;-128.05
13.7165;-149.56;-169.11
13.7204;-147.61;-165.20
13.7243;-145.65;-116.32
13.7282;-143.70;-122.19
13.7321;-141.74;-161.29
13.7361;-139.78;-157.38
13.7400;-137.83;-110.46
13.7439;-135.87;-112.41
13.7478;-133.92;-157.38
13.7517;-131.96;-149.56
13.7556;-130.01;-102.64
13.7595;-128.05;-106.55
13.7634;-126.10;-149.56
13.7673;-124.14;-141.74
13.7712;-122.19;-94.82
13.7752;-120.23;-143.70
13.7791;-118.28;-135.87
13.7830;-116.32;-88.95
13.7869;-114.37;-135.87
13.7908;-112.41;-130.01
13.7947;-110.46;-83.09
13.7986;-108.50;-130.01
13.8025;-106.55;-126.10
13.8064;-104.59;-77.22
13.8103;-102.64;-124.14
13.8143;-100.68;-120.23
13.8182;-98.73;-77.22
13.8221;-96.77;-69.40
13.8260;-94.82;-112.41
13.8299;-92.86;-69.40
13.8338;-90.91;-63.54
13.8377;-88.95;-108.50
13.8416;-87.00;-65.49
13.8455;-85.04;-57.67
13.8494;-83.09;-102.64
13.8534;-81.13;-57.67
13.8573;-79.18;-53.76
13.8612;-77.22;-96.77
13.8651;-75.27;-96.77
13.8690;-73.31;-49.85
13.8729;-71.36;-43.99
13.8768;-69.40;-87.00
13.8807;-67.45;-90.91
13.8846;-65.49;-43.99
13.8886;-63.54;-36.17
13.8925;-61.58;-81.13
13.8964;-59.63;-83.09
13.9003;-57.67;-36.17
13.9042;-55.72;-30.30
13.9081;-53.76;-71.36
13.9120;-51.81;-75.27
13.9159;-49.85;-28.35
13.9198;-47.90;-20.53
13.9237;-45.94;-63.54
13.9277;-43.99;-67.45
13.9316;-42.03;-20.53
13.9355;-40.08;-14.66
13.9394;-38.12;-57.67
13.9433;-36.17;-59.63
13.9472;-34.21;-12.71
13.9511;-32.26;-6.84
13.9550;-30.30;-4.89
13.9589;-28.35;-2.93
13.9628;-26.39;-0.98
13.9668;-24.44;2.93
13.9707;-22.48;-0.98
13.9746;-20.53;2.93
13.9785;-18.57;-42.03
13.9824;-16.62;4.89
13.9863;-14.66;-38.12
13.9902;-12.71;8.80
13.9941;-10.75;-34.21
13.9980;-8.80;-32.26
14.0019;-6.84;-32.26
14.0059;-4.89;-30.30
14.0098;-2.93;-28.35
14.0137;-0.98;-26.39
14.0176;0.98;-18.57
14.0215;2.93;28.35
14.0254;4.89;-20.53
14.0293;6.84;-14.66
14.0332;8.80;32.26
14.0371;10.75;32.26
14.0410;12.71;-14.66
14.0450;14.66;-8.80
14.0489;16.62;-4.89
14.0528;18.57;42.03
14.0567;20.53;42.03
14.0606;22.48;-2.93
14.0645;24.44;4.89
14.0684;26.39;45.94
14.0723;28.35;2.93
14.0762;30.30;53.76
14.0801;32.26;53.76
14.0841;34.21;8.80
14.0880;36.17;61.58
14.0919;38.12;57.67
14.0958;40.08;14.66
14.0997;42.03;20.53
14.1036;43.99;67.45
14.1075;45.94;67.45
14.1114;47.90;22.48
14.1153;49.85;28.35
14.1192;51.81;77.22
14.1232;53.76;73.31
14.1271;55.72;30.30
14.1310;57.67;36.17
14.1349;59.63;83.09
14.1388;61.58;81.13
14.1427;63.54;38.12
14.1466;65.49;42.03
14.1505;67.45;90.91
14.1544;69.40;90.91
14.1583;71.36;43.99
14.1623;73.31;51.81
14.1662;75.27;98.73
14.1701;77.22;98.73
14.1740;79.18;51.81
14.1779;81.13;57.67
14.1818;83.09;106.55
14.1857;85.04;106.55
14.1896;87.00;110.46
14.1935;88.95;112.41
14.1974;90.91;116.32
14.2014;92.86;114.37
14.2053;94.82;116.32
14.2092;96.77;118.28
14.2131;98.73;122.19
14.2170;100.68;77.22
14.2209;102.64;79.18
14.2248;104.59;81.13
14.2287;106.55;83.09
14.2326;108.50;85.04
14.2365;110.46;88.95
14.2405;112.41;88.95
14.2444;114.37;88.95
14.2483;116.32;92.86
14.2522;118.28;94.82
14.2561;120.23;96.77
14.2600;122.19;98.73
14.2639;124.14;100.68
14.2678;126.10;96.77
14.2717;128.05;98.73
14.2756;130.01;102.64
14.2796;131.96;151.52
14.2835;133.92;155.43
14.2874;135.87;112.41
14.2913;137.83;110.46
14.2952;139.78;159.34
14.2991;141.74;163.25
14.3030;143.70;118.28
14.3069;145.65;116.32
14.3108;147.61;165.20
14.3147;149.56;173.02
14.3187;151.52;126.10
14.3226;153.47;124.14
14.3265;155.43;174.98
14.3304;157.38;178.89
14.3343;159.34;133.92
14.3382;161.29;131.96
14.3421;163.25;182.80
14.3460;165.20;186.71
14.3499;167.16;143.70
14.3538;169.11;139.78
14.3578;171.07;188.66
14.3617;173.02;196.48
14.3656;174.98;149.56
14.3695;176.93;147.61
14.3734;178.89;198.44
14.3773;180.84;202.35
14.3812;182.80;155.43
14.3851;184.75;155.43
14.3890;186.71;206.26
14.3929;188.66;210.17
14.3969;190.62;165.20
14.4008;192.57;161.29
14.4047;194.53;212.12
14.4086;196.48;217.99
14.4125;198.44;173.02
14.4164;200.39;171.07
14.4203;202.35;219.94
14.4242;204.30;223.85
14.4281;206.26;180.84
14.4320;208.21;176.93
14.4360;210.17;227.76
14.4399;212.12;233.63
14.4438;214.08;186.71
14.4477;216.03;182.80
14.4516;217.99;235.58
14.4555;219.94;241.45
14.4594;221.90;194.53
14.4633;223.85;192.57
14.4672;225.81;243.40
14.4711;227.76;249.27
14.4751;229.72;204.30
14.4790;231.67;200.39
14.4829;233.63;251.22
14.4868;235.58;257.09
14.4907;237.54;212.12
14.4946;239.49;208.21
14.4985;241.45;259.04
14.5024;243.40;264.91
14.5063;245.36;217.99
14.5103;247.31;216.03
14.5142;249.27;266.86
14.5181;251.22;270.77
14.5220;253.18;225.81
14.5259;255.13;223.85
14.5298;257.09;272.73
14.5337;259.04;278.59
14.5376;261.00;233.63
14.5415;262.95;231.67
14.5454;264.91;282.50
14.5494;266.86;286.41
14.5533;268.82;241.45
14.5572;270.77;237.54
14.5611;272.73;288.37
14.5650;274.68;294.23
14.5689;276.64;249.27
14.5728;278.59;245.36
14.5767;280.55;298.14
14.5806;282.50;302.05
14.5845;284.46;257.09
14.5885;286.41;255.13
14.5924;288.37;305.96
14.5963;290.32;307.92
14.6002;292.28;264.91
14.6041;294.23;261.00
14.6080;296.19;313.78
14.6119;298.14;317.69
14.6158;300.10;272.73
14.6197;302.05;268.82
14.6236;304.01;319.65
14.6276;305.96;325.51
14.6315;307.92;276.64
14.6354;309.87;296.19
14.6393;311.83;327.47
14.6432;313.78;333.33
14.6471;315.74;288.37
14.6510;317.69;321.60
14.6549;319.65;337.24
14.6588;321.60;341.15
14.6627;323.56;294.23
14.6667;325.51;333.33
14.6706;327.47;343.11
14.6745;329.42;347.02
14.6784;331.38;304.01
14.6823;333.33;345.06
14.6862;335.29;350.93
14.6901;337.24;354.84
14.6940;339.20;309.87
14.6979;341.15;354.84
14.7018;343.11;358.75
14.7058;345.06;362.66
14.7097;347.02;319.65
14.7136;348.97;360.70
14.7175;350.93;366.57
14.7214;352.88;370.48
14.7253;354.84;325.51
14.7292;356.79;370.48
14.7331;358.75;374.39
14.7370;360.70;376.34
14.7409;362.66;333.33
14.7449;364.61;376.34
14.7488;366.57;382.21
14.7527;368.52;386.12
14.7566;370.48;341.15
14.7605;372.43;386.12
14.7644;374.39;390.03
14.7683;376.34;393.94
14.7722;378.30;347.02
14.7761;380.25;391.98
14.7800;382.21;397.85
14.7840;384.16;401.76
14.7879;386.12;356.79
14.7918;388.07;399.80
14.7957;390.03;405.67
14.7996;391.98;409.58
14.8035;393.94;364.61
14.8074;395.89;407.62
14.8113;397.85;411.53
14.8152;399.80;415.44
14.8191;401.76;372.43
14.8231;403.71;415.44
14.8270;405.67;419.35
14.8309;407.62;423.26
14.8348;409.58;378.30
14.8387;411.53;423.26
14.8426;413.49;427.17
14.8465;415.44;431.09
14.8504;417.40;386.12
14.8543;419.35;431.09
14.8582;421.31;435.00
14.8622;423.26;440.86
14.8661;425.22;393.94
14.8700;427.17;438.91
14.8739;429.13;442.82
14.8778;431.09;444.77
14.8817;433.04;397.85
14.8856;435.00;446.73
14.8895;436.95;450.64
14.8934;438.91;454.55
14.8973;440.86;407.62
14.9013;442.82;454.55
14.9052;444.77;458.46
14.9091;446.73;462.37
14.9130;448.68;415.44
14.9169;450.64;462.37
14.9208;452.59;466.28
14.9247;454.55;468.23
14.9286;456.50;423.26
14.9325;458.46;470.19
14.9364;460.41;474.10
14.9404;462.37;476.05
14.9443;464.32;431.09
14.9482;466.28;476.05
14.9521;468.23;479.96
14.9560;470.19;483.87
14.9599;472.14;438.91
14.9638;474.10;485.83
14.9677;476.05;487.78
14.9716;478.01;491.69
14.9755;479.96;446.73
14.9795;481.92;491.69
14.9834;483.87;495.60
14.9873;485.83;499.51
14.9912;487.78;454.55
14.9951;489.74;499.51
14.9990;491.69;503.42
15.0029;493.65;507.33
15.0068;495.60;462.37
15.0107;497.56;507.33
15.0146;499.51;511.24
15.0186;501.47;515.15
15.0225;503.42;470.19
15.0264;505.38;515.15
15.0303;507.33;519.06
15.0342;509.29;522.97
15.0381;511.24;476.05
15.0420;513.20;522.97
15.0459;515.15;526.88
15.0498;517.11;530.79
15.0537;519.06;483.87
15.0577;521.02;530.79
15.0616;522.97;534.70
15.0655;524.93;538.61
15.0694;526.88;493.65
15.0733;528.84;538.61
15.0772;530.79;540.57
15.0811;532.75;546.43
15.0850;534.70;499.51
15.0889;536.66;546.43
15.0929;538.61;550.34
15.0968;540.57;554.25
15.1007;542.52;507.33
15.1046;544.48;554.25
15.1085;546.43;558.16
15.1124;548.39;562.07
15.1163;550.34;515.15
15.1202;552.30;562.07
15.1241;554.25;564.03
15.1280;556.21;569.89
15.1320;558.16;530.79
15.1359;560.12;569.89
15.1398;562.07;571.85
15.1437;564.03;575.76
15.1476;565.98;530.79
15.1515;567.94;575.76
15.1554;569.89;581.62
15.1593;571.85;583.58
15.1632;573.80;536.66
15.1671;575.76;585.53
15.1711;577.71;589.44
15.1750;579.67;591.40
15.1789;581.62;544.48
15.1828;583.58;591.40
15.1867;585.53;597.26
15.1906;587.49;599.22
15.1945;589.44;552.30
15.1984;591.40;599.22
15.2023;593.35;603.13
15.2062;595.31;607.04
15.2102;597.26;560.12
15.2141;599.22;607.04
15.2180;601.17;610.95
15.2219;603.13;612.90
15.2258;605.08;567.94
15.2297;607.04;614.86
15.2336;608.99;618.77
15.2375;610.95;622.68
15.2414;612.90;575.76
15.2453;614.86;622.68
15.2493;616.81;626.59
15.2532;618.77;628.54
15.2571;620.72;583.58
15.2610;622.68;630.50
15.2649;624.63;634.41
15.2688;626.59;636.36
15.2727;628.54;591.40
15.2766;630.50;638.32
15.2805;632.45;640.27
15.2844;634.41;644.18
15.2884;636.36;597.26
15.2923;638.32;646.14
15.2962;640.27;648.09
15.3001;642.23;652.00
15.3040;644.18;605.08
15.3079;646.14;653.96
15.3118;648.09;655.91
15.3157;650.05;659.82
15.3196;652.00;612.90
15.3235;653.96;659.82
15.3275;655.91;663.73
15.3314;657.87;667.64
15.3353;659.82;620.72
15.3392;661.78;667.64
15.3431;663.73;671.55
15.3470;665.69;675.46
15.3509;667.64;626.59
15.3548;669.60;675.46
15.3587;671.55;679.37
15.3626;673.51;683.28
15.3666;675.46;636.36
15.3705;677.42;683.28
15.3744;679.37;687.19
15.3783;681.33;689.15
15.3822;683.28;689.15
15.3861;685.24;691.10
15.3900;687.19;695.01
15.3939;689.15;698.92
15.3978;691.10;652.00
15.4017;693.06;698.92
15.4057;695.01;702.83
15.4096;696.97;706.74
15.4135;698.92;657.87
15.4174;700.88;706.74
15.4213;702.83;710.65
15.4252;704.79;712.61
15.4291;706.74;665.69
15.4330;708.70;714.57
15.4369;710.65;716.52
15.4408;712.61;720.43
15.4448;714.57;673.51
15.4487;716.52;722.39
15.4526;718.48;726.30
15.4565;720.43;728.25
15.4604;722.39;681.33
15.4643;724.34;730.21
15.4682;726.30;732.16
15.4721;728.25;736.07
15.4760;730.21;689.15
15.4799;732.16;738.03
15.4839;734.12;741.94
15.4878;736.07;743.89
15.4917;738.03;696.97
15.4956;739.98;745.85
15.4995;741.94;747.80
15.5034;743.89;751.71
15.5073;745.85;702.83
15.5112;747.80;753.67
15.5151;749.76;755.62
15.5190;751.71;759.53
15.5230;753.67;710.65
15.5269;755.62;761.49
15.5308;757.58;763.44
15.5347;759.53;767.35
15.5386;761.49;718.48
15.5425;763.44;769.31
15.5464;765.40;771.26
15.5503;767.35;775.17
15.5542;769.31;726.30
15.5581;771.26;777.13
15.5621;773.22;779.08
15.5660;775.17;781.04
15.5699;777.13;734.12
15.5738;779.08;784.95
15.5777;781.04;786.90
15.5816;782.99;788.86
15.5855;784.95;741.94
15.5894;786.90;790.81
15.5933;788.86;794.72
15.5972;790.81;796.68
15.6012;792.77;749.76
15.6051;794.72;798.63
15.6090;796.68;802.54
15.6129;798.63;804.50
15.6168;800.59;757.58
15.6207;802.54;806.45
15.6246;804.50;810.36
15.6285;806.45;812.32
15.6324;808.41;812.32
15.6363;810.36;814.27
15.6403;812.32;816.23
15.6442;814.27;820.14
15.6481;816.23;810.36
15.6520;818.18;822.09
15.6559;820.14;824.05
15.6598;822.09;827.96
15.6637;824.05;824.05
15.6676;826.00;829.91
15.6715;827.96;831.87
15.6754;829.91;835.78
15.6794;831.87;833.82
15.6833;833.82;837.73
15.6872;835.78;839.69
15.6911;837.73;841.64
15.6950;839.69;841.64
15.6989;841.64;845.55
15.7028;843.60;847.51
15.7067;845.55;851.42
15.7106;847.51;849.46
15.7146;849.46;853.37
15.7185;851.42;855.33
15.7224;853.37;857.28
15.7263;855.33;859.24
15.7302;857.28;861.19
15.7341;859.24;863.15
15.7380;861.19;867.06
15.7419;863.15;865.10
15.7458;865.10;869.01
15.7497;867.06;870.97
15.7537;869.01;872.92
15.7576;870.97;872.92
15.7615;872.92;874.88
15.7654;874.88;878.79
15.7693;876.83;880.74
15.7732;878.79;880.74
15.7771;880.74;882.70
15.7810;882.70;886.61
15.7849;884.65;888.56
15.7888;886.61;890.52
15.7928;888.56;890.52
15.7967;890.52;894.43
15.8006;892.47;896.38
15.8045;894.43;896.38
15.8084;896.38;900.29
15.8123;898.34;900.29
15.8162;900.29;904.20
15.8201;902.25;904.20
15.8240;904.20;906.16
15.8279;906.16;910.07
15.8319;908.11;910.07
15.8358;910.07;912.02
15.8397;912.02;913.98
15.8436;913.98;917.89
15.8475;915.93;919.84
15.8514;917.89;919.84
15.8553;919.84;921.80
15.8592;921.80;923.75
15.8631;923.75;925.71
15.8670;925.71;927.66
15.8710;927.66;929.62
15.8749;929.62;931.57
15.8788;931.57;933.53
15.8827;933.53;935.48
15.8866;935.48;937.44
15.8905;937.44;939.39
15.8944;939.39;941.35
15.8983;941.35;943.30
15.9022;943.30;945.26
15.9061;945.26;947.21
15.9101;947.21;949.17
15.9140;949.17;951.12
15.9179;951.12;953.08
15.9218;953.08;955.03
15.9257;955.03;956.99
15.9296;956.99;958.94
15.9335;958.94;960.90
15.9374;960.90;962.85
15.9413;962.85;964.81
15.9452;964.81;964.81
15.9492;966.76;968.72
15.9531;968.72;970.67
15.9570;970.67;972.63
15.9609;972.63;974.58
15.9648;974.58;976.54
15.9687;976.54;978.49
15.9726;978.49;980.45
15.9765;980.45;980.45
15.9804;982.40;984.36
15.9843;984.36;984.36
15.9883;986.31;988.27
15.9922;988.27;988.27
15.9961;990.22;990.22
16.0000;992.18;992.18
16.0039;994.13;994.13
16.0078;996.09;996.09
16.0117;998.04;998.04
16.0156;1000.00;1000.00

Acquisition complétée
