=~=~=~=~=~=~=~=~=~=~=~= PuTTY log 2025.04.02 22:36:30 =~=~=~=~=~=~=~=~=~=~=~=
Choisissez la methode :
1 - Chronoamperometrie
2 - Voltammetrie cyclique
Methode selectionnee : Voltammetrie cyclique
Entrez E1 (en Volts) :
Entrez E2 (en Volts) :
Entrez la vitesse de balayage (en V/s) :
Entrez le nombre de cycles :
Parametres enregistres.
E1 = -1.00 V, E2 = 1.00 V, Vitesse = 0.10 V/s
Cycles = 2.00
Entrez le facteur d'affichage (valeur par défaut = 1, valeur utilisée pour les mesures = 4) :
Facteur d'affichage choisi : 1
Entrez 'ok' pour commencer l'expérience.
Debut
Temps (s) tension (mV) courant (mA)
0.0196;1000.00;-200.00
0.0391;998.04;-200.00
0.0587;996.09;-200.00
0.0782;994.13;-200.00
0.0978;992.18;-200.00
0.1173;990.22;-200.00
0.1369;988.27;-200.00
0.1564;986.31;-200.00
0.1760;984.36;-200.00
0.1955;982.40;-200.00
0.2151;980.45;-200.00
0.2346;978.49;-200.00
0.2542;976.54;-200.00
0.2737;974.58;-200.00
0.2933;972.63;-200.00
0.3128;970.67;-200.00
0.3324;968.72;-199.61
0.3519;966.76;-199.22
0.3715;964.81;-198.83
0.3910;962.85;-198.04
0.4106;960.90;-198.44
0.4301;958.94;-198.04
0.4497;956.99;-197.65
0.4692;955.03;-196.48
0.4888;953.08;-196.48
0.5083;951.12;-196.48
0.5279;949.17;-195.70
0.5474;947.21;-195.70
0.5670;945.26;-195.31
0.5865;943.30;-194.92
0.6061;941.35;-194.13
0.6256;939.39;-193.74
0.6452;937.44;-193.74
0.6647;935.48;-193.74
0.6843;933.53;-192.57
0.7038;931.57;-192.18
0.7234;929.62;-192.18
0.7429;927.66;-191.79
0.7625;925.71;-191.40
0.7820;923.75;-190.22
0.8016;921.80;-190.62
0.8211;919.84;-190.22
0.8407;917.89;-189.83
0.8602;915.93;-188.66
0.8798;913.98;-189.05
0.8993;912.02;-188.66
0.9189;910.07;-188.27
0.9384;908.11;-187.49
0.9580;906.16;-187.10
0.9775;904.20;-187.49
0.9971;902.25;-186.31
1.0166;900.29;-185.92
1.0362;898.34;-185.92
1.0557;896.38;-185.92
1.0753;894.43;-184.75
1.0948;892.47;-184.36
1.1144;890.52;-184.36
1.1339;888.56;-183.97
1.1535;886.61;-183.19
1.1730;884.65;-182.80
1.1926;882.70;-183.19
1.2121;880.74;-182.01
1.2317;878.79;-180.45
1.2512;876.83;-182.01
1.2708;874.88;-181.23
1.2903;872.92;-181.23
1.3099;870.97;-180.06
1.3294;869.01;-179.67
1.3490;867.06;-180.06
1.3685;865.10;-179.67
1.3881;863.15;-178.49
1.4076;861.19;-178.10
1.4272;859.24;-178.89
1.4467;857.28;-177.32
1.4663;855.33;-174.98
1.4858;853.37;-176.15
1.5054;851.42;-176.93
1.5249;849.46;-176.54
1.5445;847.51;-171.85
1.5640;845.55;-174.58
1.5836;843.60;-175.37
1.6031;841.64;-174.98
1.6227;839.69;-176.93
1.6422;837.73;-173.80
1.6618;835.78;-174.19
1.6813;833.82;-173.41
1.7009;831.87;-172.63
1.7204;829.91;-171.85
1.7400;827.96;-171.85
1.7595;826.00;-171.85
1.7791;824.05;-170.67
1.7986;822.09;-169.89
1.8182;820.14;-171.07
1.8377;818.18;-170.28
1.8573;816.23;-153.47
1.8768;814.27;-168.72
1.8964;812.32;-169.11
1.9159;810.36;-168.72
1.9355;808.41;-151.52
1.9550;806.45;-167.55
1.9746;804.50;-167.94
1.9941;802.54;-167.16
2.0137;800.59;-165.98
2.0332;798.63;-165.20
2.0528;796.68;-166.37
2.0723;794.72;-165.59
2.0919;792.77;-164.42
2.1114;790.81;-164.42
2.1310;788.86;-164.81
2.1505;786.90;-164.42
2.1701;784.95;-162.85
2.1896;782.99;-162.46
2.2092;781.04;-162.46
2.2287;779.08;-163.25
2.2483;777.13;-160.90
2.2678;775.17;-161.68
2.2874;773.22;-162.07
2.3069;771.26;-161.68
2.3265;769.31;-143.30
2.3460;767.35;-159.34
2.3656;765.40;-160.51
2.3851;763.44;-159.34
2.4047;761.49;-142.13
2.4242;759.53;-158.55
2.4438;757.58;-158.55
2.4633;755.62;-158.16
2.4829;753.67;-156.99
2.5024;751.71;-156.99
2.5220;749.76;-157.38
2.5415;747.80;-156.99
2.5611;745.85;-138.22
2.5806;743.89;-138.22
2.6002;741.94;-155.82
2.6197;739.98;-155.43
2.6393;738.03;-153.86
2.6588;736.07;-136.66
2.6784;734.12;-154.25
2.6979;732.16;-153.47
2.7175;730.21;-135.48
2.7370;728.25;-151.12
2.7566;726.30;-153.08
2.7761;724.34;-151.91
2.7957;722.39;-133.92
2.8152;720.43;-149.56
2.8348;718.48;-151.12
2.8543;716.52;-150.73
2.8739;714.57;-131.96
2.8934;712.61;-149.56
2.9130;710.65;-149.56
2.9325;708.70;-149.17
2.9521;706.74;-130.79
2.9716;704.79;-146.43
2.9912;702.83;-148.00
3.0108;700.88;-147.61
3.0303;698.92;-146.82
3.0499;696.97;-145.65
3.0694;695.01;-146.04
3.0890;693.06;-146.43
3.1085;691.10;-145.65
3.1281;689.15;-144.09
3.1476;687.19;-144.48
3.1672;685.24;-144.09
3.1867;683.28;-143.30
3.2063;681.33;-142.52
3.2258;679.37;-143.30
3.2454;677.42;-142.91
3.2649;675.46;-141.35
3.2845;673.51;-141.35
3.3040;671.55;-141.74
3.3236;669.60;-141.74
3.3431;667.64;-123.36
3.3627;665.69;-139.78
3.3822;663.73;-140.18
3.4018;661.78;-139.39
3.4213;659.82;-138.61
3.4409;657.87;-136.27
3.4604;655.91;-137.44
3.4800;653.96;-139.00
3.4995;652.00;-137.44
3.5191;650.05;-134.31
3.5386;648.09;-137.05
3.5582;646.14;-137.05
3.5777;644.18;-135.09
3.5973;642.23;-135.48
3.6168;640.27;-135.87
3.6364;638.32;-135.09
3.6559;636.36;-116.72
3.6755;634.41;-133.14
3.6950;632.45;-133.92
3.7146;630.50;-133.92
3.7341;628.54;-132.36
3.7537;626.59;-131.57
3.7732;624.63;-133.14
3.7928;622.68;-132.36
3.8123;620.72;-114.37
3.8319;618.77;-128.45
3.8514;616.81;-131.18
3.8710;614.86;-131.18
3.8905;612.90;-130.01
3.9101;610.95;-127.27
3.9296;608.99;-129.23
3.9492;607.04;-130.01
3.9687;605.08;-128.45
3.9883;603.13;-126.88
4.0078;601.17;-128.05
4.0274;599.22;-128.05
4.0469;597.26;-127.27
4.0665;595.31;-122.97
4.0860;593.35;-126.88
4.1056;591.40;-126.49
4.1251;589.44;-124.93
4.1447;587.49;-126.88
4.1642;585.53;-124.93
4.1838;583.58;-125.32
4.2033;581.62;-105.77
4.2229;579.67;-121.41
4.2424;577.71;-123.36
4.2620;575.76;-123.36
4.2815;573.80;-122.58
4.3011;571.85;-121.02
4.3206;569.89;-120.63
4.3402;567.94;-122.19
4.3597;565.98;-120.23
4.3793;564.03;-102.25
4.3988;562.07;-119.06
4.4184;560.12;-119.45
4.4379;558.16;-118.28
4.4575;556.21;-117.89
4.4770;554.25;-117.50
4.4966;552.30;-119.06
4.5161;550.34;-116.72
4.5357;548.39;-99.12
4.5552;546.43;-115.15
4.5748;544.48;-116.72
4.5943;542.52;-116.72
4.6139;540.57;-115.15
4.6334;538.61;-96.77
4.6530;536.66;-113.98
4.6725;534.70;-113.20
4.6921;532.75;-115.93
4.7116;530.79;-113.20
4.7312;528.84;-94.82
4.7507;526.88;-95.60
4.7703;524.93;-94.82
4.7898;522.97;-94.82
4.8094;521.02;-93.65
4.8289;519.06;-93.65
4.8485;517.11;-92.47
4.8680;515.15;-93.26
4.8876;513.20;-92.86
4.9071;511.24;-91.30
4.9267;509.29;-91.30
4.9462;507.33;-90.91
4.9658;505.38;-107.33
4.9853;503.42;-108.50
5.0049;501.47;-108.90
5.0244;499.51;-107.33
5.0440;497.56;-89.74
5.0635;495.60;-88.56
5.0831;493.65;-87.78
5.1026;491.69;-87.39
5.1222;489.74;-106.16
5.1417;487.78;-105.77
5.1613;485.83;-105.38
5.1808;483.87;-105.38
5.2004;481.92;-86.61
5.2199;479.96;-102.25
5.2395;478.01;-103.42
5.2590;476.05;-104.20
5.2786;474.10;-102.25
5.2981;472.14;-83.48
5.3177;470.19;-102.25
5.3372;468.23;-101.86
5.3568;466.28;-101.86
5.3763;464.32;-99.90
5.3959;462.37;-100.68
5.4154;460.41;-97.95
5.4350;458.46;-81.13
5.4545;456.50;-81.13
5.4741;454.55;-98.34
5.4936;452.59;-80.35
5.5132;450.64;-96.38
5.5327;448.68;-79.18
5.5523;446.73;-95.21
5.5718;444.77;-78.79
5.5914;442.82;-78.40
5.6109;440.86;-79.18
5.6305;438.91;-94.04
5.6500;436.95;-77.61
5.6696;435.00;-78.01
5.6891;433.04;-77.22
5.7087;431.09;-76.83
5.7282;429.13;-92.08
5.7478;427.17;-74.88
5.7673;425.22;-74.88
5.7869;423.26;-90.91
5.8064;421.31;-73.70
5.8260;419.35;-74.10
5.8455;417.40;-74.10
5.8651;415.44;-72.53
5.8846;413.49;-71.75
5.9042;411.53;-72.14
5.9237;409.58;-71.75
5.9433;407.62;-87.39
5.9628;405.67;-70.97
5.9824;403.71;-70.19
6.0020;401.76;-70.97
6.0215;399.80;-70.97
6.0411;397.85;-69.01
6.0606;395.89;-69.79
6.0802;393.94;-69.01
6.0997;391.98;-68.23
6.1193;390.03;-68.23
6.1388;388.07;-67.06
6.1584;386.12;-83.09
6.1779;384.16;-66.67
6.1975;382.21;-81.92
6.2170;380.25;-65.88
6.2366;378.30;-65.10
6.2561;376.34;-80.74
6.2757;374.39;-65.10
6.2952;372.43;-64.32
6.3148;370.48;-63.54
6.3343;368.52;-63.15
6.3539;366.57;-79.96
6.3734;364.61;-62.76
6.3930;362.66;-62.37
6.4125;360.70;-78.01
6.4321;358.75;-77.22
6.4516;356.79;-61.19
6.4712;354.84;-60.80
6.4907;352.88;-61.58
6.5103;350.93;-59.63
6.5298;348.97;-59.63
6.5494;347.02;-60.02
6.5689;345.06;-59.24
6.5885;343.11;-58.85
6.6080;341.15;-58.85
6.6276;339.20;-58.46
6.6471;337.24;-57.28
6.6667;335.29;-76.83
6.6862;333.33;-56.89
6.7058;331.38;-57.67
6.7253;329.42;-70.97
6.7449;327.47;-55.33
6.7644;325.51;-54.55
6.7840;323.56;-56.11
6.8035;321.60;-55.33
6.8231;319.65;-56.89
6.8426;317.69;-53.37
6.8622;315.74;-52.20
6.8817;313.78;-53.76
6.9013;311.83;-52.20
6.9208;309.87;-52.98
6.9404;307.92;-51.42
6.9599;305.96;-50.64
6.9795;304.01;-50.64
6.9990;302.05;-51.42
7.0186;300.10;-51.03
7.0381;298.14;-50.24
7.0577;296.19;-48.68
7.0772;294.23;-48.68
7.0968;292.28;-49.85
7.1163;290.32;-48.68
7.1359;288.37;-47.90
7.1554;286.41;-47.12
7.1750;284.46;-46.33
7.1945;282.50;-46.73
7.2141;280.55;-46.73
7.2336;278.59;-45.16
7.2532;276.64;-45.55
7.2727;274.68;-44.77
7.2923;272.73;-45.16
7.3118;270.77;-43.99
7.3314;268.82;-43.99
7.3509;266.86;-43.60
7.3705;264.91;-42.82
7.3900;262.95;-43.99
7.4096;261.00;-60.41
7.4291;259.04;-42.03
7.4487;257.09;-41.64
7.4682;255.13;-40.86
7.4878;253.18;-40.47
7.5073;251.22;-40.08
7.5269;249.27;-39.69
7.5464;247.31;-40.08
7.5660;245.36;-38.91
7.5855;243.40;-40.08
7.6051;241.45;-38.12
7.6246;239.49;-38.12
7.6442;237.54;-38.51
7.6637;235.58;-37.34
7.6833;233.63;-36.56
7.7028;231.67;-37.73
7.7224;229.72;-35.78
7.7419;227.76;-36.56
7.7615;225.81;-35.78
7.7810;223.85;-36.17
7.8006;221.90;-52.59
7.8201;219.94;-34.21
7.8397;217.99;-33.82
7.8592;216.03;-34.21
7.8788;214.08;-35.00
7.8983;212.12;-33.43
7.9179;210.17;-31.87
7.9374;208.21;-31.87
7.9570;206.26;-32.65
7.9765;204.30;-31.87
7.9961;202.35;-30.69
8.0156;200.39;-30.30
8.0352;198.44;-29.52
8.0547;196.48;-31.09
8.0743;194.53;-29.13
8.0938;192.57;-30.69
8.1134;190.62;-28.35
8.1329;188.66;-28.35
8.1525;186.71;-27.57
8.1720;184.75;-27.57
8.1916;182.80;-26.78
8.2111;180.84;-26.39
8.2307;178.89;-25.61
8.2502;176.93;-27.17
8.2698;174.98;-24.83
8.2893;173.02;-24.83
8.3089;171.07;-26.00
8.3284;169.11;-23.66
8.3480;167.16;-23.26
8.3675;165.20;-24.05
8.3871;163.25;-22.87
8.4066;161.29;-24.05
8.4262;159.34;-22.09
8.4457;157.38;-21.70
8.4653;155.43;-21.31
8.4848;153.47;-20.53
8.5044;151.52;-20.92
8.5239;149.56;-20.14
8.5435;147.61;-19.75
8.5630;145.65;-20.92
8.5826;143.70;-18.57
8.6021;141.74;-18.96
8.6217;139.78;-18.18
8.6412;137.83;-17.79
8.6608;135.87;-18.96
8.6803;133.92;-18.57
8.6999;131.96;-16.62
8.7194;130.01;-18.18
8.7390;128.05;-17.79
8.7585;126.10;-15.44
8.7781;124.14;-15.44
8.7976;122.19;-14.66
8.8172;120.23;-14.27
8.8367;118.28;-14.66
8.8563;116.32;-13.49
8.8758;114.37;-13.49
8.8954;112.41;-13.49
8.9149;110.46;-11.93
8.9345;108.50;-13.88
8.9540;106.55;-13.10
8.9736;104.59;-11.14
8.9931;102.64;-10.75
9.0127;100.68;-10.75
9.0322;98.73;-25.22
9.0518;96.77;-9.58
9.0714;94.82;-28.74
9.0909;92.86;-8.80
9.1105;90.91;-9.97
9.1300;88.95;-26.78
9.1496;87.00;-8.02
9.1691;85.04;-27.96
9.1887;83.09;-26.00
9.2082;81.13;-6.84
9.2278;79.18;-26.00
9.2473;77.22;-25.22
9.2669;75.27;-5.67
9.2864;73.31;-24.83
9.3060;71.36;-10.36
9.3255;69.40;-4.11
9.3451;67.45;-24.05
9.3646;65.49;-5.67
9.3842;63.54;-5.67
9.4037;61.58;-4.11
9.4233;59.63;-4.50
9.4428;57.67;-4.50
9.4624;55.72;-1.37
9.4819;53.76;-2.54
9.5015;51.81;-19.75
9.5210;49.85;-20.92
9.5406;47.90;-0.20
9.5601;45.94;-18.57
9.5797;43.99;-19.35
9.5992;42.03;-0.98
9.6188;40.08;-17.79
9.6383;38.12;-18.57
9.6579;36.17;-15.84
9.6774;34.21;2.54
9.6970;32.26;1.76
9.7165;30.30;-16.62
9.7361;28.35;-15.84
9.7556;26.39;3.32
9.7752;24.44;-13.88
9.7947;22.48;4.89
9.8143;20.53;-12.71
9.8338;18.57;5.28
9.8534;16.62;-12.32
9.8729;14.66;6.45
9.8925;12.71;-11.93
9.9120;10.75;7.23
9.9316;8.80;-12.71
9.9511;6.84;7.23
9.9707;4.89;8.41
9.9902;2.93;8.41
10.0098;0.98;-11.14
10.0293;-0.98;-10.36
10.0489;-2.93;-9.97
10.0684;-4.89;8.80
10.0880;-6.84;8.41
10.1075;-8.80;9.58
10.1271;-10.75;-8.80
10.1466;-12.71;-8.41
10.1662;-14.66;-7.62
10.1857;-16.62;-7.23
10.2053;-18.57;-6.84
10.2248;-20.53;-6.84
10.2444;-22.48;-4.89
10.2639;-24.44;-5.67
10.2835;-26.39;-5.28
10.3030;-28.35;-4.89
10.3226;-30.30;-4.89
10.3421;-32.26;-4.50
10.3617;-34.21;-4.11
10.3812;-36.17;-4.11
10.4008;-38.12;-2.93
10.4203;-40.08;-2.93
10.4399;-42.03;-2.15
10.4594;-43.99;-1.76
10.4790;-45.94;-1.76
10.4985;-47.90;-0.98
10.5181;-49.85;-0.98
10.5376;-51.81;0.20
10.5572;-53.76;0.20
10.5767;-55.72;20.14
10.5963;-57.67;20.53
10.6158;-59.63;20.14
10.6354;-61.58;20.92
10.6549;-63.54;21.70
10.6745;-65.49;22.09
10.6940;-67.45;22.48
10.7136;-69.40;22.09
10.7331;-71.36;23.26
10.7527;-73.31;24.05
10.7722;-75.27;23.26
10.7918;-77.22;24.44
10.8113;-79.18;24.05
10.8309;-81.13;24.44
10.8504;-83.09;23.26
10.8700;-85.04;26.00
10.8895;-87.00;24.44
10.9091;-88.95;26.00
10.9286;-90.91;26.39
10.9482;-92.86;27.17
10.9677;-94.82;28.35
10.9873;-96.77;28.35
11.0068;-98.73;26.39
11.0264;-100.68;10.36
11.0459;-102.64;27.17
11.0655;-104.59;28.74
11.0850;-106.55;13.49
11.1046;-108.50;9.97
11.1241;-110.46;30.69
11.1437;-112.41;31.48
11.1632;-114.37;14.27
11.1828;-116.32;12.71
11.2023;-118.28;13.10
11.2219;-120.23;32.65
11.2414;-122.19;16.62
11.2610;-124.14;15.05
11.2805;-126.10;14.66
11.3001;-128.05;15.84
11.3196;-130.01;33.04
11.3392;-131.96;16.23
11.3587;-133.92;17.01
11.3783;-135.87;35.78
11.3978;-137.83;35.00
11.4174;-139.78;18.18
11.4369;-141.74;18.18
11.4565;-143.70;36.56
11.4760;-145.65;36.56
11.4956;-147.61;17.79
11.5151;-149.56;36.56
11.5347;-151.52;38.91
11.5542;-153.47;38.51
11.5738;-155.43;20.53
11.5933;-157.38;22.09
11.6129;-159.34;40.47
11.6324;-161.29;22.48
11.6520;-163.25;22.87
11.6715;-165.20;23.26
11.6911;-167.16;41.25
11.7106;-169.11;41.64
11.7302;-171.07;24.05
11.7497;-173.02;23.66
11.7693;-174.98;42.42
11.7888;-176.93;43.21
11.8084;-178.89;36.56
11.8279;-180.84;42.42
11.8475;-182.80;44.38
11.8670;-184.75;44.38
11.8866;-186.71;27.57
11.9061;-188.66;27.17
11.9257;-190.62;46.73
11.9452;-192.57;45.94
11.9648;-194.53;28.35
11.9843;-196.48;44.38
12.0039;-198.44;45.16
12.0234;-200.39;47.12
12.0430;-202.35;46.33
12.0626;-204.30;30.30
12.0821;-206.26;49.07
12.1017;-208.21;49.46
12.1212;-210.17;31.87
12.1408;-212.12;32.26
12.1603;-214.08;48.29
12.1799;-216.03;48.68
12.1994;-217.99;33.04
12.2190;-219.94;33.82
12.2385;-221.90;52.59
12.2581;-223.85;52.59
12.2776;-225.81;35.39
12.2972;-227.76;35.39
12.3167;-229.72;53.76
12.3363;-231.67;51.81
12.3558;-233.63;36.95
12.3754;-235.58;52.98
12.3949;-237.54;55.33
12.4145;-239.49;54.15
12.4340;-241.45;38.12
12.4536;-243.40;38.51
12.4731;-245.36;56.89
12.4927;-247.31;56.11
12.5122;-249.27;38.12
12.5318;-251.22;57.28
12.5513;-253.18;58.46
12.5709;-255.13;58.46
12.5904;-257.09;56.89
12.6100;-259.04;41.25
12.6295;-261.00;59.63
12.6491;-262.95;60.02
12.6686;-264.91;42.42
12.6882;-266.86;42.82
12.7077;-268.82;60.80
12.7273;-270.77;44.77
12.7468;-272.73;45.55
12.7664;-274.68;60.80
12.7859;-276.64;63.54
12.8055;-278.59;63.15
12.8250;-280.55;46.73
12.8446;-282.50;46.33
12.8641;-284.46;63.54
12.8837;-286.41;47.90
12.9032;-288.37;48.68
12.9228;-290.32;63.54
12.9423;-292.28;65.49
12.9619;-294.23;65.49
12.9814;-296.19;47.51
13.0010;-298.14;49.07
13.0205;-300.10;65.49
13.0401;-302.05;67.06
13.0596;-304.01;67.06
13.0792;-305.96;66.67
13.0987;-307.92;68.23
13.1183;-309.87;68.23
13.1378;-311.83;51.42
13.1574;-313.78;67.06
13.1769;-315.74;70.97
13.1965;-317.69;69.79
13.2160;-319.65;54.15
13.2356;-321.60;69.79
13.2551;-323.56;72.14
13.2747;-325.51;70.58
13.2942;-327.47;55.33
13.3138;-329.42;70.97
13.3333;-331.38;73.31
13.3529;-333.33;72.53
13.3724;-335.29;56.11
13.3920;-337.24;56.50
13.4115;-339.20;74.88
13.4311;-341.15;58.85
13.4506;-343.11;59.63
13.4702;-345.06;58.85
13.4897;-347.02;76.44
13.5093;-348.97;76.83
13.5288;-350.93;60.80
13.5484;-352.88;60.02
13.5679;-354.84;77.22
13.5875;-356.79;78.79
13.6070;-358.75;78.01
13.6266;-360.70;61.97
13.6461;-362.66;79.96
13.6657;-364.61;78.79
13.6852;-366.57;62.76
13.7048;-368.52;63.93
13.7243;-370.48;81.13
13.7439;-372.43;79.57
13.7634;-374.39;67.45
13.7830;-376.34;79.57
13.8025;-378.30;80.35
13.8221;-380.25;82.31
13.8416;-382.21;66.28
13.8612;-384.16;81.13
13.8807;-386.12;85.43
13.9003;-388.07;83.87
13.9198;-390.03;68.23
13.9394;-391.98;67.84
13.9589;-393.94;83.48
13.9785;-395.89;85.43
13.9980;-397.85;84.26
14.0176;-399.80;70.19
14.0371;-401.76;87.00
14.0567;-403.71;88.17
14.0762;-405.67;72.53
14.0958;-407.62;70.58
14.1153;-409.58;88.95
14.1349;-411.53;72.53
14.1544;-413.49;72.53
14.1740;-415.44;72.53
14.1935;-417.40;90.52
14.2131;-419.35;89.74
14.2326;-421.31;74.10
14.2522;-423.26;88.95
14.2717;-425.22;90.91
14.2913;-427.18;91.69
14.3108;-429.13;86.61
14.3304;-431.09;91.30
14.3499;-433.04;92.47
14.3695;-435.00;93.65
14.3890;-436.95;92.08
14.4086;-438.91;78.01
14.4281;-440.86;95.60
14.4477;-442.82;93.65
14.4672;-444.77;79.18
14.4868;-446.73;95.60
14.5063;-448.68;95.60
14.5259;-450.64;95.21
14.5454;-452.59;95.60
14.5650;-454.55;80.74
14.5845;-456.50;97.56
14.6041;-458.46;98.34
14.6236;-460.41;80.74
14.6432;-462.37;96.77
14.6627;-464.32;99.12
14.6823;-466.28;98.34
14.7018;-468.23;98.73
14.7214;-470.19;98.73
14.7409;-472.14;100.29
14.7605;-474.10;99.12
14.7800;-476.05;85.43
14.7996;-478.01;100.68
14.8191;-479.96;85.83
14.8387;-481.92;100.68
14.8582;-483.87;103.81
14.8778;-485.83;100.68
14.8973;-487.78;103.81
14.9169;-489.74;101.86
14.9364;-491.69;105.38
14.9560;-493.65;87.39
14.9755;-495.60;105.77
14.9951;-497.56;89.35
15.0146;-499.51;88.17
15.0342;-501.47;106.55
15.0537;-503.42;105.77
15.0733;-505.38;106.94
15.0929;-507.33;106.16
15.1124;-509.29;108.50
15.1320;-511.24;92.86
15.1515;-513.20;92.47
15.1711;-515.15;110.07
15.1906;-517.11;108.11
15.2102;-519.06;109.29
15.2297;-521.02;109.68
15.2493;-522.97;110.85
15.2688;-524.93;95.60
15.2884;-526.88;94.43
15.3079;-528.84;112.02
15.3275;-530.79;96.77
15.3470;-532.75;95.99
15.3666;-534.70;113.98
15.3861;-536.66;96.38
15.4057;-538.61;96.77
15.4252;-540.57;114.76
15.4448;-542.52;99.51
15.4643;-544.48;112.81
15.4839;-546.43;115.93
15.5034;-548.39;99.51
15.5230;-550.34;115.54
15.5425;-552.30;115.54
15.5621;-554.25;117.50
15.5816;-556.21;101.08
15.6012;-558.16;117.11
15.6207;-560.12;117.50
15.6403;-562.07;116.32
15.6598;-564.03;102.64
15.6794;-565.98;117.89
15.6989;-567.94;118.67
15.7185;-569.89;119.84
15.7380;-571.85;119.45
15.7576;-573.80;121.41
15.7771;-575.76;105.38
15.7967;-577.71;121.02
15.8162;-579.67;106.16
15.8358;-581.62;121.41
15.8553;-583.58;107.72
15.8749;-585.53;123.36
15.8944;-587.49;122.58
15.9140;-589.44;123.36
15.9335;-591.40;121.80
15.9531;-593.35;123.75
15.9726;-595.31;110.07
15.9922;-597.26;126.10
16.0117;-599.22;110.07
16.0313;-601.17;126.49
16.0508;-603.13;126.49
16.0704;-605.08;124.14
16.0899;-607.04;124.93
16.1095;-608.99;126.88
16.1290;-610.95;127.66
16.1486;-612.90;128.05
16.1681;-614.86;113.20
16.1877;-616.81;130.01
16.2072;-618.77;128.45
16.2268;-620.72;130.01
16.2463;-622.68;115.15
16.2659;-624.63;131.57
16.2854;-626.59;117.11
16.3050;-628.54;129.62
16.3245;-630.50;131.18
16.3441;-632.45;131.57
16.3636;-634.41;117.50
16.3832;-636.36;132.75
16.4027;-638.32;133.53
16.4223;-640.27;133.92
16.4418;-642.23;117.89
16.4614;-644.18;134.70
16.4809;-646.14;121.41
16.5005;-648.09;133.14
16.5200;-650.05;135.09
16.5396;-652.00;135.09
16.5591;-653.96;122.58
16.5787;-655.91;136.66
16.5982;-657.87;136.66
16.6178;-659.82;137.44
16.6373;-661.78;122.19
16.6569;-663.73;137.83
16.6764;-665.69;121.80
16.6960;-667.64;139.00
16.7155;-669.60;123.36
16.7351;-671.55;140.18
16.7546;-673.51;127.27
16.7742;-675.46;140.96
16.7937;-677.42;131.96
16.8133;-679.37;142.13
16.8328;-681.33;137.05
16.8524;-683.28;142.13
16.8719;-685.24;140.57
16.8915;-687.19;143.70
16.9110;-689.15;140.96
16.9306;-691.10;141.74
16.9501;-693.06;144.09
16.9697;-695.01;143.70
16.9892;-696.97;144.87
17.0088;-698.92;144.87
17.0283;-700.88;145.26
17.0479;-702.83;146.43
17.0674;-704.79;145.65
17.0870;-706.74;146.04
17.1065;-708.70;146.43
17.1261;-710.66;148.00
17.1456;-712.61;147.21
17.1652;-714.57;148.00
17.1847;-716.52;147.21
17.2043;-718.48;148.78
17.2238;-720.43;147.61
17.2434;-722.39;150.34
17.2629;-724.34;148.00
17.2825;-726.30;150.73
17.3020;-728.25;151.12
17.3216;-730.21;151.91
17.3411;-732.16;136.27
17.3607;-734.12;152.69
17.3802;-736.07;151.91
17.3998;-738.03;153.08
17.4193;-739.98;151.12
17.4389;-741.94;153.08
17.4584;-743.89;153.86
17.4780;-745.85;154.64
17.4975;-747.80;154.25
17.5171;-749.76;155.82
17.5366;-751.71;140.57
17.5562;-753.67;156.99
17.5757;-755.62;155.03
17.5953;-757.58;156.99
17.6148;-759.53;156.21
17.6344;-761.49;158.55
17.6539;-763.44;157.38
17.6735;-765.40;156.60
17.6930;-767.35;158.55
17.7126;-769.31;158.94
17.7321;-771.26;144.87
17.7517;-773.22;159.73
17.7712;-775.17;159.34
17.7908;-777.13;160.12
17.8103;-779.08;160.90
17.8299;-781.04;160.12
17.8494;-782.99;160.51
17.8690;-784.95;162.46
17.8885;-786.90;162.46
17.9081;-788.86;162.46
17.9276;-790.81;162.46
17.9472;-792.77;164.03
17.9667;-794.72;149.17
17.9863;-796.68;163.64
18.0058;-798.63;165.20
18.0254;-800.59;164.81
18.0450;-802.54;165.59
18.0645;-804.50;165.20
18.0841;-806.45;165.20
18.1036;-808.41;166.37
18.1232;-810.36;165.98
18.1427;-812.32;168.33
18.1623;-814.27;154.25
18.1818;-816.23;168.72
18.2014;-818.18;167.94
18.2209;-820.14;169.50
18.2405;-822.09;168.33
18.2600;-824.05;170.28
18.2796;-826.00;169.89
18.2991;-827.96;171.07
18.3187;-829.91;170.67
18.3382;-831.87;170.67
18.3578;-833.82;157.38
18.3773;-835.78;172.24
18.3969;-837.73;171.85
18.4164;-839.69;172.63
18.4360;-841.64;173.41
18.4555;-843.60;173.41
18.4751;-845.55;173.80
18.4946;-847.51;174.19
18.5142;-849.46;174.98
18.5337;-851.42;176.15
18.5533;-853.37;175.37
18.5728;-855.33;176.93
18.5924;-857.28;162.85
18.6119;-859.24;176.54
18.6315;-861.19;176.93
18.6510;-863.15;176.93
18.6706;-865.10;178.89
18.6901;-867.06;178.10
18.7097;-869.01;178.49
18.7292;-870.97;178.89
18.7488;-872.92;178.89
18.7683;-874.88;179.67
18.7879;-876.83;180.06
18.8074;-878.79;181.23
18.8270;-880.74;181.23
18.8465;-882.70;180.06
18.8661;-884.65;182.01
18.8856;-886.61;182.01
18.9052;-888.56;181.62
18.9247;-890.52;183.19
18.9443;-892.47;183.58
18.9638;-894.43;183.97
18.9834;-896.38;182.80
19.0029;-898.34;184.36
19.0225;-900.29;184.36
19.0420;-902.25;184.75
19.0616;-904.20;185.14
19.0811;-906.16;185.92
19.1007;-908.11;186.71
19.1202;-910.07;186.31
19.1398;-912.02;186.71
19.1593;-913.98;185.53
19.1789;-915.93;188.27
19.1984;-917.89;187.49
19.2180;-919.84;189.05
19.2375;-921.80;189.05
19.2571;-923.75;187.49
19.2766;-925.71;190.22
19.2962;-927.66;189.83
19.3157;-929.62;189.83
19.3353;-931.57;190.62
19.3548;-933.53;191.79
19.3744;-935.48;192.57
19.3939;-937.44;192.57
19.4135;-939.39;191.40
19.4330;-941.35;192.96
19.4526;-943.30;193.74
19.4721;-945.26;192.96
19.4917;-947.21;194.53
19.5112;-949.17;194.53
19.5308;-951.12;195.70
19.5503;-953.08;195.31
19.5699;-955.03;196.09
19.5894;-956.99;196.09
19.6090;-958.94;195.70
19.6285;-960.90;196.87
19.6481;-962.85;197.26
19.6676;-964.81;197.26
19.6872;-966.76;196.87
19.7067;-968.72;198.04
19.7263;-970.67;198.83
19.7458;-972.63;198.83
19.7654;-974.58;199.61
19.7849;-976.54;200.00
19.8045;-978.49;200.00
19.8240;-980.45;200.00
19.8436;-982.40;200.00
19.8631;-984.36;200.00
19.8827;-986.31;200.00
19.9022;-988.27;200.00
19.9218;-990.22;200.00
19.9413;-992.18;200.00
19.9609;-994.13;200.00
19.9804;-996.09;200.00
20.0000;-998.05;200.00
20.0195;-1000.00;200.00
20.0391;-1000.00;200.00
20.0586;-998.05;200.00
20.0782;-996.09;200.00
20.0977;-994.13;200.00
20.1173;-992.18;200.00
20.1368;-990.22;200.00
20.1564;-988.27;200.00
20.1759;-986.31;200.00
20.1955;-984.36;200.00
20.2150;-982.40;200.00
20.2346;-980.45;200.00
20.2541;-978.49;198.04
20.2737;-976.54;199.61
20.2932;-974.58;196.87
20.3128;-972.63;198.83
20.3323;-970.67;198.44
20.3519;-968.72;198.04
20.3714;-966.76;197.26
20.3910;-964.81;194.92
20.4105;-962.85;196.87
20.4301;-960.90;196.09
20.4496;-958.94;195.31
20.4692;-956.99;194.92
20.4887;-955.03;195.31
20.5083;-953.08;193.74
20.5278;-951.12;194.92
20.5474;-949.17;192.96
20.5669;-947.21;192.96
20.5865;-945.26;193.74
20.6060;-943.30;192.18
20.6256;-941.35;192.96
20.6451;-939.39;191.40
20.6647;-937.44;192.18
20.6842;-935.48;190.22
20.7038;-933.53;189.44
20.7233;-931.57;190.22
20.7429;-929.62;189.05
20.7624;-927.66;182.80
20.7820;-925.71;189.05
20.8015;-923.75;186.71
20.8211;-921.80;187.49
20.8406;-919.84;188.27
20.8602;-917.89;186.71
20.8797;-915.93;186.71
20.8993;-913.98;186.31
20.9188;-912.02;186.31
20.9384;-910.07;186.71
20.9579;-908.11;183.97
20.9775;-906.16;185.53
20.9970;-904.20;185.53
21.0166;-902.25;183.58
21.0361;-900.29;183.19
21.0557;-898.34;183.58
21.0753;-896.38;183.58
21.0948;-894.43;183.19
21.1144;-892.47;181.62
21.1339;-890.52;182.40
21.1535;-888.56;180.84
21.1730;-886.61;180.06
21.1926;-884.65;166.37
21.2121;-882.70;179.28
21.2317;-880.74;180.06
21.2512;-878.79;180.06
21.2708;-876.83;180.06
21.2903;-874.88;178.89
21.3099;-872.92;178.10
21.3294;-870.97;178.10
21.3490;-869.01;178.49
21.3685;-867.06;175.76
21.3881;-865.10;176.93
21.4076;-863.15;176.93
21.4272;-861.19;175.76
21.4467;-859.24;176.15
21.4663;-857.28;174.98
21.4858;-855.33;175.76
21.5054;-853.37;175.37
21.5249;-851.42;173.80
21.5445;-849.46;173.80
21.5640;-847.51;173.41
21.5836;-845.55;172.63
21.6031;-843.60;173.80
21.6227;-841.64;157.77
21.6422;-839.69;172.24
21.6618;-837.73;171.07
21.6813;-835.78;171.85
21.7009;-833.82;171.07
21.7204;-831.87;170.28
21.7400;-829.91;170.67
21.7595;-827.96;170.28
21.7791;-826.00;168.33
21.7986;-824.05;167.55
21.8182;-822.09;168.33
21.8377;-820.14;167.94
21.8573;-818.18;167.55
21.8768;-816.23;166.76
21.8964;-814.27;167.16
21.9159;-812.32;167.55
21.9355;-810.36;165.59
21.9550;-808.41;165.59
21.9746;-806.45;165.98
21.9941;-804.50;165.20
22.0137;-802.54;164.42
22.0332;-800.59;164.03
22.0528;-798.63;163.64
22.0723;-796.68;163.64
22.0919;-794.72;163.25
22.1114;-792.77;163.64
22.1310;-790.81;162.07
22.1505;-788.86;161.29
22.1701;-786.90;162.07
22.1896;-784.95;161.29
22.2092;-782.99;160.90
22.2287;-781.04;159.34
22.2483;-779.08;159.34
22.2678;-777.13;160.51
22.2874;-775.17;157.38
22.3069;-773.22;158.94
22.3265;-771.26;158.55
22.3460;-769.31;159.73
22.3656;-767.35;156.21
22.3851;-765.40;157.38
22.4047;-763.44;156.60
22.4242;-761.49;156.21
22.4438;-759.53;140.18
22.4633;-757.58;156.21
22.4829;-755.62;155.43
22.5024;-753.67;154.25
22.5220;-751.71;155.03
22.5415;-749.76;154.64
22.5611;-747.80;153.47
22.5806;-745.85;153.47
22.6002;-743.89;152.30
22.6197;-741.94;153.47
22.6393;-739.98;151.52
22.6588;-738.03;151.52
22.6784;-736.07;151.91
22.6979;-734.12;149.95
22.7175;-732.16;149.95
22.7370;-730.21;150.73
22.7566;-728.25;149.56
22.7761;-726.30;149.95
22.7957;-724.34;148.78
22.8152;-722.39;149.56
22.8348;-720.43;147.61
22.8543;-718.48;147.61
22.8739;-716.52;147.21
22.8934;-714.57;148.00
22.9130;-712.61;146.82
22.9325;-710.66;146.04
22.9521;-708.70;145.65
22.9716;-706.74;145.65
22.9912;-704.79;144.87
23.0107;-702.83;145.26
23.0303;-700.88;144.09
23.0498;-698.92;144.09
23.0694;-696.97;142.91
23.0889;-695.01;142.13
23.1085;-693.06;141.74
23.1280;-691.10;142.52
23.1476;-689.15;140.96
23.1671;-687.19;142.52
23.1867;-685.24;140.18
23.2062;-683.28;139.78
23.2258;-681.33;136.66
23.2453;-679.37;140.57
23.2649;-677.42;124.54
23.2844;-675.46;139.39
23.3040;-673.51;139.00
23.3235;-671.55;139.00
23.3431;-669.60;121.80
23.3626;-667.64;138.61
23.3822;-665.69;120.63
23.4017;-663.73;138.22
23.4213;-661.78;119.84
23.4408;-659.82;136.66
23.4604;-657.87;135.87
23.4799;-655.91;135.48
23.4995;-653.96;122.19
23.5190;-652.00;133.53
23.5386;-650.05;134.31
23.5581;-648.09;134.31
23.5777;-646.14;119.84
23.5972;-644.18;134.31
23.6168;-642.23;117.50
23.6363;-640.27;133.14
23.6559;-638.32;117.89
23.6754;-636.36;132.75
23.6950;-634.41;115.93
23.7145;-632.45;131.96
23.7341;-630.50;116.32
23.7536;-628.54;131.18
23.7732;-626.59;114.76
23.7927;-624.63;130.40
23.8123;-622.68;115.15
23.8318;-620.72;129.23
23.8514;-618.77;113.20
23.8709;-616.81;128.05
23.8905;-614.86;113.59
23.9100;-612.90;125.71
23.9296;-610.95;112.81
23.9491;-608.99;126.10
23.9687;-607.04;125.32
23.9882;-605.08;125.71
24.0078;-603.13;124.93
24.0273;-601.17;124.14
24.0469;-599.22;123.75
24.0664;-597.26;124.93
24.0860;-595.31;124.14
24.1056;-593.35;123.75
24.1251;-591.40;107.33
24.1447;-589.44;122.97
24.1642;-587.49;108.11
24.1838;-585.53;121.02
24.2033;-583.58;121.02
24.2229;-581.62;121.41
24.2424;-579.67;105.77
24.2620;-577.71;121.02
24.2815;-575.76;104.99
24.3011;-573.80;119.84
24.3206;-571.85;103.81
24.3402;-569.89;117.89
24.3597;-567.94;103.42
24.3793;-565.98;118.28
24.3988;-564.03;117.11
24.4184;-562.07;117.89
24.4379;-560.12;101.86
24.4575;-558.16;117.11
24.4770;-556.21;115.15
24.4966;-554.25;117.11
24.5161;-552.30;99.12
24.5357;-550.34;112.41
24.5552;-548.39;114.76
24.5748;-546.43;113.20
24.5943;-544.48;114.37
24.6139;-542.52;112.41
24.6334;-540.57;113.20
24.6530;-538.61;110.85
24.6725;-536.66;112.41
24.6921;-534.70;95.21
24.7116;-532.75;112.02
24.7312;-530.79;95.99
24.7507;-528.84;94.82
24.7703;-526.88;110.46
24.7898;-524.93;109.68
24.8094;-522.97;108.50
24.8289;-521.02;108.50
24.8485;-519.06;110.07
24.8680;-517.11;107.33
24.8876;-515.15;108.11
24.9071;-513.20;106.55
24.9267;-511.24;107.72
24.9462;-509.29;91.30
24.9658;-507.33;104.99
24.9853;-505.38;106.55
25.0049;-503.42;90.13
25.0244;-501.47;105.38
25.0440;-499.51;104.20
25.0635;-497.56;104.20
25.0831;-495.60;103.03
25.1026;-493.65;103.42
25.1222;-491.69;88.17
25.1417;-489.74;102.64
25.1613;-487.78;102.64
25.1808;-485.83;86.22
25.2004;-483.87;99.90
25.2199;-481.92;101.86
25.2395;-479.96;101.08
25.2590;-478.01;101.47
25.2786;-476.05;83.09
25.2981;-474.10;99.90
25.3177;-472.14;99.12
25.3372;-470.19;83.09
25.3568;-468.23;97.56
25.3763;-466.28;99.51
25.3959;-464.32;97.95
25.4154;-462.37;81.52
25.4350;-460.41;95.60
25.4545;-458.46;96.38
25.4741;-456.50;96.77
25.4936;-454.55;78.79
25.5132;-452.59;94.82
25.5327;-450.64;96.38
25.5523;-448.68;95.21
25.5718;-446.73;79.18
25.5914;-444.77;93.65
25.6109;-442.82;93.65
25.6305;-440.86;93.26
25.6500;-438.91;91.69
25.6696;-436.95;76.05
25.6891;-435.00;93.65
25.7087;-433.04;92.86
25.7282;-431.09;87.39
25.7478;-429.13;89.74
25.7673;-427.18;90.91
25.7869;-425.22;81.13
25.8064;-423.26;78.01
25.8260;-421.31;73.70
25.8455;-419.35;90.13
25.8651;-417.40;90.13
25.8846;-415.44;71.75
25.9042;-413.49;71.75
25.9237;-411.53;88.95
25.9433;-409.58;71.36
25.9628;-407.62;71.36
25.9824;-405.67;84.65
26.0019;-403.71;86.22
26.0215;-401.76;86.61
26.0410;-399.80;72.14
26.0606;-397.85;67.84
26.0801;-395.89;82.70
26.0997;-393.94;84.65
26.1192;-391.98;67.45
26.1388;-390.03;82.70
26.1583;-388.07;82.31
26.1779;-386.12;81.92
26.1974;-384.16;66.28
26.2170;-382.21;80.35
26.2365;-380.25;81.92
26.2561;-378.30;82.31
26.2756;-376.34;64.32
26.2952;-374.39;79.96
26.3147;-372.43;81.13
26.3343;-370.48;78.79
26.3538;-368.52;63.15
26.3734;-366.57;77.22
26.3929;-364.61;79.18
26.4125;-362.66;77.22
26.4320;-360.70;63.15
26.4516;-358.75;75.66
26.4711;-356.79;76.83
26.4907;-354.84;76.83
26.5102;-352.88;60.80
26.5298;-350.93;74.49
26.5493;-348.97;75.66
26.5689;-347.02;75.66
26.5884;-345.06;58.46
26.6080;-343.11;57.67
26.6275;-341.15;74.49
26.6471;-339.20;73.70
26.6666;-337.24;56.50
26.6862;-335.29;71.75
26.7057;-333.33;73.31
26.7253;-331.38;71.75
26.7448;-329.42;54.94
26.7644;-327.47;70.58
26.7839;-325.51;71.75
26.8035;-323.56;70.58
26.8230;-321.60;69.79
26.8426;-319.65;70.19
26.8621;-317.69;69.40
26.8817;-315.74;68.62
26.9012;-313.78;52.20
26.9208;-311.83;51.81
26.9403;-309.87;68.62
26.9599;-307.92;67.84
26.9794;-305.96;51.03
26.9990;-304.01;49.46
27.0185;-302.05;65.10
27.0381;-300.10;65.10
27.0576;-298.14;50.24
27.0772;-296.19;48.29
27.0967;-294.23;63.93
27.1163;-292.28;63.93
27.1359;-290.32;46.73
27.1554;-288.37;61.97
27.1750;-286.41;64.32
27.1945;-284.46;47.51
27.2141;-282.50;44.77
27.2336;-280.55;60.80
27.2532;-278.59;62.76
27.2727;-276.64;61.19
27.2923;-274.68;44.38
27.3118;-272.73;58.85
27.3314;-270.77;61.19
27.3509;-268.82;60.02
27.3705;-266.86;43.21
27.3900;-264.91;40.86
27.4096;-262.95;58.85
27.4291;-261.00;58.06
27.4487;-259.04;42.42
27.4682;-257.09;40.47
27.4878;-255.13;57.28
27.5073;-253.18;57.28
27.5269;-251.22;38.91
27.5464;-249.27;54.55
27.5660;-247.31;54.15
27.5855;-245.36;54.55
27.6051;-243.40;53.37
27.6246;-241.45;37.73
27.6442;-239.49;55.33
27.6637;-237.54;52.98
27.6833;-235.58;36.17
27.7028;-233.63;35.78
27.7224;-231.67;53.37
27.7419;-229.72;35.39
27.7615;-227.76;34.60
27.7810;-225.81;33.82
27.8006;-223.85;49.85
27.8201;-221.90;51.81
27.8397;-219.94;33.04
27.8592;-217.99;33.04
27.8788;-216.03;49.07
27.8983;-214.08;50.24
27.9179;-212.12;31.09
27.9374;-210.17;48.29
27.9570;-208.21;48.29
27.9765;-206.26;46.33
27.9961;-204.30;29.52
28.0156;-202.35;29.52
28.0352;-200.39;46.73
28.0547;-198.44;45.94
28.0743;-196.48;29.91
28.0938;-194.53;42.82
28.1134;-192.57;45.55
28.1329;-190.62;43.60
28.1525;-188.66;26.78
28.1720;-186.71;26.78
28.1916;-184.75;43.60
28.2111;-182.80;43.21
28.2307;-180.84;25.22
28.2502;-178.89;25.61
28.2698;-176.93;41.64
28.2893;-174.98;31.48
28.3089;-173.02;29.52
28.3284;-171.07;24.05
28.3480;-169.11;41.25
28.3675;-167.16;23.66
28.3871;-165.20;22.87
28.4066;-163.25;21.31
28.4262;-161.29;40.08
28.4457;-159.34;20.92
28.4653;-157.38;19.35
28.4848;-155.43;36.17
28.5044;-153.47;37.73
28.5239;-151.52;23.26
28.5435;-149.56;18.96
28.5630;-147.61;19.75
28.5826;-145.65;35.78
28.6021;-143.70;35.39
28.6217;-141.74;16.23
28.6412;-139.78;33.43
28.6608;-137.83;35.00
28.6803;-135.87;33.82
28.6999;-133.92;16.62
28.7194;-131.96;16.23
28.7390;-130.01;33.04
28.7585;-128.05;32.26
28.7781;-126.10;14.66
28.7976;-124.14;29.13
28.8172;-122.19;32.26
28.8367;-120.23;15.84
28.8563;-118.28;13.10
28.8758;-116.32;13.49
28.8954;-114.37;29.91
28.9149;-112.41;29.13
28.9345;-110.46;10.75
28.9540;-108.50;10.75
28.9736;-106.55;28.35
28.9931;-104.59;12.71
29.0127;-102.64;9.97
29.0322;-100.68;8.80
29.0518;-98.73;9.58
29.0713;-96.77;8.41
29.0909;-94.82;25.61
29.1104;-92.86;25.22
29.1300;-90.91;24.05
29.1495;-88.95;7.23
29.1691;-87.00;24.05
29.1886;-85.04;24.44
29.2082;-83.09;23.66
29.2277;-81.13;24.05
29.2473;-79.18;23.26
29.2668;-77.22;22.87
29.2864;-75.27;22.87
29.3059;-73.31;22.48
29.3255;-71.36;22.09
29.3450;-69.40;21.70
29.3646;-67.45;20.92
29.3841;-65.49;21.31
29.4037;-63.54;20.53
29.4232;-61.58;20.14
29.4428;-59.63;19.75
29.4623;-57.67;18.57
29.4819;-55.72;18.96
29.5014;-53.76;18.57
29.5210;-51.81;17.01
29.5405;-49.85;17.40
29.5601;-47.90;17.01
29.5796;-45.94;17.40
29.5992;-43.99;16.23
29.6187;-42.03;16.62
29.6383;-40.08;15.44
29.6578;-38.12;15.44
29.6774;-36.17;14.27
29.6969;-34.21;14.66
29.7165;-32.26;13.88
29.7360;-30.30;13.88
29.7556;-28.35;13.49
29.7751;-26.39;12.32
29.7947;-24.44;12.71
29.8142;-22.48;12.32
29.8338;-20.53;9.97
29.8533;-18.57;9.97
29.8729;-16.62;-7.62
29.8924;-14.66;-8.02
29.9120;-12.71;-8.80
29.9315;-10.75;-9.19
29.9511;-8.80;8.02
29.9706;-6.84;8.02
29.9902;-4.89;7.62
30.0097;-2.93;7.23
30.0293;-0.98;-10.75
30.0488;0.98;-9.58
30.0684;2.93;6.45
30.0879;4.89;-11.14
30.1075;6.84;-10.75
30.1270;8.80;6.06
30.1466;10.75;6.06
30.1662;12.71;-13.88
30.1857;14.66;-13.88
30.2053;16.62;-14.66
30.2248;18.57;-14.66
30.2444;20.53;-14.66
30.2639;22.48;-15.44
30.2835;24.44;-16.62
30.3030;26.39;-14.27
30.3226;28.35;-17.01
30.3421;30.30;-16.62
30.3617;32.26;-17.40
30.3812;34.21;-18.57
30.4008;36.17;-16.62
30.4203;38.12;-18.57
30.4399;40.08;-17.40
30.4594;42.03;-18.96
30.4790;43.99;-18.96
30.4985;45.94;-19.75
30.5181;47.90;-20.92
30.5376;49.85;-20.53
30.5572;51.81;-21.31
30.5767;53.76;-22.09
30.5963;55.72;-22.09
30.6158;57.67;-22.87
30.6354;59.63;-22.87
30.6549;61.58;-22.87
30.6745;63.54;-23.66
30.6940;65.49;-22.48
30.7136;67.45;-25.22
30.7331;69.40;-25.22
30.7527;71.36;-24.83
30.7722;73.31;-25.61
30.7918;75.27;-25.61
30.8113;77.22;-27.17
30.8309;79.18;-26.39
30.8504;81.13;-27.57
30.8700;83.09;-25.22
30.8895;85.04;-27.96
30.9091;87.00;-27.17
30.9286;88.95;-28.35
30.9482;90.91;-29.13
30.9677;92.86;-29.13
30.9873;94.82;-29.52
31.0068;96.77;-28.74
31.0264;98.73;-30.30
31.0459;100.68;-26.00
31.0655;102.64;-29.91
31.0850;104.59;-31.48
31.1046;106.55;-14.66
31.1241;108.50;-13.49
31.1437;110.46;-32.65
31.1632;112.41;-32.26
31.1828;114.37;-14.66
31.2023;116.32;-15.44
31.2219;118.28;-34.60
31.2414;120.23;-33.43
31.2610;122.19;-18.57
31.2805;124.14;-17.01
31.3001;126.10;-34.60
31.3196;128.05;-36.17
31.3392;130.01;-18.18
31.3587;131.96;-17.79
31.3783;133.92;-37.34
31.3978;135.87;-36.56
31.4174;137.83;-19.75
31.4369;139.78;-35.39
31.4565;141.74;-38.91
31.4760;143.70;-38.91
31.4956;145.65;-21.31
31.5151;147.61;-39.30
31.5347;149.56;-40.86
31.5542;151.52;-39.30
31.5738;153.47;-23.26
31.5933;155.43;-40.47
31.6129;157.38;-42.03
31.6324;159.34;-40.86
31.6520;161.29;-25.22
31.6715;163.25;-40.86
31.6911;165.20;-42.42
31.7106;167.16;-42.03
31.7302;169.11;-26.39
31.7497;171.07;-42.03
31.7693;173.02;-44.38
31.7888;174.98;-45.55
31.8084;176.93;-28.74
31.8279;178.89;-27.57
31.8475;180.84;-46.73
31.8670;182.80;-46.73
31.8866;184.75;-28.35
31.9061;186.71;-29.52
31.9257;188.66;-47.90
31.9452;190.62;-31.48
31.9648;192.57;-32.65
31.9843;194.53;-46.73
32.0039;196.48;-47.12
32.0234;198.44;-49.07
32.0430;200.39;-33.04
32.0625;202.35;-32.65
32.0821;204.30;-51.03
32.1016;206.26;-35.00
32.1212;208.21;-33.82
32.1407;210.17;-49.85
32.1603;212.12;-52.59
32.1798;214.08;-52.98
32.1994;216.03;-35.00
32.2189;217.99;-51.42
32.2385;219.94;-54.94
32.2580;221.90;-54.94
32.2776;223.85;-37.34
32.2971;225.81;-55.33
32.3167;227.76;-56.11
32.3362;229.72;-54.94
32.3558;231.67;-38.12
32.3753;233.63;-54.55
32.3949;235.58;-57.28
32.4144;237.54;-56.11
32.4340;239.49;-40.86
32.4535;241.45;-56.11
32.4731;243.40;-58.46
32.4926;245.36;-58.06
32.5122;247.31;-40.86
32.5317;249.27;-57.67
32.5513;251.22;-60.02
32.5708;253.18;-60.80
32.5904;255.13;-43.60
32.6099;257.09;-43.21
32.6295;259.04;-61.97
32.6490;261.00;-61.97
32.6686;262.95;-44.38
32.6881;264.91;-60.80
32.7077;266.86;-63.15
32.7272;268.82;-61.97
32.7468;270.77;-46.33
32.7663;272.73;-62.37
32.7859;274.68;-65.49
32.8054;276.64;-65.49
32.8250;278.59;-48.68
32.8445;280.55;-65.49
32.8641;282.50;-66.28
32.8836;284.46;-65.49
32.9032;286.41;-48.68
32.9227;288.37;-66.28
32.9423;290.32;-67.84
32.9618;292.28;-67.06
32.9814;294.23;-51.03
33.0009;296.19;-51.42
33.0205;298.14;-69.40
33.0401;300.10;-69.79
33.0596;302.05;-68.62
33.0792;304.01;-52.59
33.0987;305.96;-71.75
33.1183;307.92;-54.15
33.1378;309.87;-53.76
33.1574;311.83;-70.97
33.1769;313.78;-72.92
33.1965;315.74;-55.72
33.2160;317.69;-56.11
33.2356;319.65;-74.10
33.2551;321.60;-74.10
33.2747;323.56;-73.31
33.2942;325.51;-65.88
33.3138;327.47;-75.27
33.3333;329.42;-76.05
33.3529;331.38;-58.85
33.3724;333.33;-58.46
33.3920;335.29;-75.66
33.4115;337.24;-77.61
33.4311;339.20;-76.05
33.4506;341.15;-60.02
33.4702;343.11;-76.44
33.4897;345.06;-78.79
33.5093;347.02;-79.57
33.5288;348.97;-60.80
33.5484;350.93;-79.96
33.5679;352.88;-80.35
33.5875;354.84;-79.18
33.6070;356.79;-64.71
33.6266;358.75;-79.96
33.6461;360.70;-81.52
33.6657;362.66;-81.13
33.6852;364.61;-65.10
33.7048;366.57;-79.96
33.7243;368.52;-83.87
33.7439;370.48;-66.67
33.7634;372.43;-66.67
33.7830;374.39;-83.09
33.8025;376.34;-85.43
33.8221;378.30;-83.09
33.8416;380.25;-67.45
33.8612;382.21;-85.83
33.8807;384.16;-86.22
33.9003;386.12;-85.83
33.9198;388.07;-70.19
33.9394;390.03;-86.61
33.9589;391.98;-87.78
33.9785;393.94;-87.00
33.9980;395.89;-70.58
34.0176;397.85;-88.17
34.0371;399.80;-90.52
34.0567;401.76;-89.35
34.0762;403.71;-72.53
34.0958;405.67;-89.35
34.1153;407.62;-91.30
34.1349;409.58;-90.13
34.1544;411.53;-88.56
34.1740;413.49;-88.95
34.1935;415.44;-92.47
34.2131;417.40;-92.47
34.2326;419.35;-90.13
34.2522;421.31;-94.04
34.2717;423.26;-93.65
34.2913;425.22;-77.22
34.3108;427.17;-77.22
34.3304;429.13;-94.04
34.3499;431.09;-95.21
34.3695;433.04;-95.21
34.3890;435.00;-94.82
34.4086;436.95;-94.04
34.4281;438.91;-97.56
34.4477;440.86;-80.35
34.4672;442.82;-79.96
34.4868;444.77;-97.56
34.5063;446.73;-98.73
34.5259;448.68;-97.56
34.5454;450.64;-96.38
34.5650;452.59;-97.17
34.5845;454.55;-100.29
34.6041;456.50;-83.48
34.6236;458.46;-99.90
34.6432;460.41;-101.47
34.6627;462.37;-83.87
34.6823;464.32;-101.47
34.7018;466.28;-85.83
34.7214;468.23;-85.04
34.7409;470.19;-102.64
34.7605;472.14;-102.25
34.7800;474.10;-101.86
34.7996;476.05;-103.81
34.8191;478.01;-104.20
34.8387;479.96;-103.42
34.8582;481.92;-104.99
34.8778;483.87;-104.59
34.8973;485.83;-106.55
34.9169;487.78;-105.38
34.9364;489.74;-106.55
34.9560;491.69;-107.72
34.9755;493.65;-107.33
34.9951;495.60;-106.94
35.0146;497.56;-108.50
35.0342;499.51;-91.69
35.0537;501.47;-92.47
35.0733;503.42;-109.29
35.0928;505.38;-109.68
35.1124;507.33;-110.07
35.1319;509.29;-93.26
35.1515;511.24;-93.65
35.1710;513.20;-109.68
35.1906;515.15;-111.63
35.2101;517.11;-111.63
35.2297;519.06;-111.24
35.2492;521.02;-111.24
35.2688;522.97;-112.02
35.2883;524.93;-113.59
35.3079;526.88;-113.98
35.3274;528.84;-114.76
35.3470;530.79;-115.15
35.3665;532.75;-115.15
35.3861;534.70;-115.15
35.4056;536.66;-114.76
35.4252;538.61;-99.51
35.4447;540.57;-99.12
35.4643;542.52;-117.11
35.4838;544.48;-116.32
35.5034;546.43;-116.72
35.5229;548.39;-101.47
35.5425;550.34;-118.28
35.5620;552.30;-119.06
35.5816;554.25;-119.84
35.6011;556.21;-118.67
35.6207;558.16;-119.84
35.6402;560.12;-119.45
35.6598;562.07;-119.45
35.6793;564.03;-121.02
35.6989;565.98;-119.84
35.7184;567.94;-104.99
35.7380;569.89;-121.41
35.7575;571.85;-121.80
35.7771;573.80;-121.80
35.7966;575.76;-122.58
35.8162;577.71;-124.14
35.8357;579.67;-123.36
35.8553;581.62;-125.32
35.8748;583.58;-124.93
35.8944;585.53;-125.32
35.9139;587.49;-124.93
35.9335;589.44;-125.71
35.9530;591.40;-126.49
35.9726;593.35;-127.27
35.9921;595.31;-126.49
36.0117;597.26;-128.05
36.0312;599.22;-126.88
36.0508;601.17;-128.45
36.0704;603.13;-128.84
36.0899;605.08;-125.71
36.1095;607.04;-128.84
36.1290;608.99;-129.23
36.1486;610.95;-113.59
36.1681;612.90;-129.62
36.1877;614.86;-130.40
36.2072;616.81;-130.40
36.2268;618.77;-131.18
36.2463;620.72;-132.75
36.2659;622.68;-131.96
36.2854;624.63;-133.53
36.3050;626.59;-132.75
36.3245;628.54;-133.53
36.3441;630.50;-117.89
36.3636;632.45;-134.31
36.3832;634.41;-118.67
36.4027;636.36;-134.31
36.4223;638.32;-119.45
36.4418;640.27;-136.27
36.4614;642.23;-135.48
36.4809;644.18;-137.44
36.5005;646.14;-137.05
36.5200;648.09;-135.48
36.5396;650.05;-138.22
36.5591;652.00;-135.87
36.5787;653.96;-122.19
36.5982;655.91;-139.39
36.6178;657.87;-138.61
36.6373;659.82;-139.78
36.6569;661.78;-139.39
36.6764;663.73;-141.35
36.6960;665.69;-140.96
36.7155;667.64;-141.35
36.7351;669.60;-140.96
36.7546;671.55;-142.52
36.7742;673.51;-125.71
36.7937;675.46;-143.30
36.8133;677.42;-142.52
36.8328;679.37;-144.09
36.8524;681.33;-143.30
36.8719;683.28;-144.87
36.8915;685.24;-144.09
36.9110;687.19;-144.87
36.9306;689.15;-145.65
36.9501;691.10;-145.26
36.9697;693.06;-145.65
36.9892;695.01;-146.04
37.0088;696.97;-147.21
37.0283;698.92;-147.21
37.0479;700.88;-148.00
37.0674;702.83;-148.00
37.0870;704.79;-149.17
37.1065;706.74;-149.56
37.1261;708.70;-148.78
37.1456;710.65;-149.95
37.1652;712.61;-149.56
37.1847;714.57;-151.12
37.2043;716.52;-150.34
37.2238;718.48;-151.91
37.2434;720.43;-151.12
37.2629;722.39;-152.69
37.2825;724.34;-151.91
37.3020;726.30;-152.30
37.3216;728.25;-152.69
37.3411;730.21;-154.25
37.3607;732.16;-153.47
37.3802;734.12;-155.03
37.3998;736.07;-154.25
37.4193;738.03;-155.82
37.4389;739.98;-154.64
37.4584;741.94;-156.60
37.4780;743.89;-156.21
37.4975;745.85;-157.38
37.5171;747.80;-156.60
37.5366;749.76;-157.77
37.5562;751.71;-157.38
37.5757;753.67;-158.55
37.5953;755.62;-142.13
37.6148;757.58;-159.34
37.6344;759.53;-158.94
37.6539;761.49;-159.73
37.6735;763.44;-159.73
37.6930;765.40;-160.12
37.7126;767.35;-160.51
37.7321;769.31;-161.68
37.7517;771.26;-161.29
37.7712;773.22;-162.46
37.7908;775.17;-162.46
37.8103;777.13;-162.85
37.8299;779.08;-162.85
37.8494;781.04;-163.64
37.8690;782.99;-163.64
37.8885;784.95;-164.81
37.9081;786.90;-164.81
37.9276;788.86;-165.59
37.9472;790.81;-165.20
37.9667;792.77;-166.37
37.9863;794.72;-165.98
38.0058;796.68;-165.59
38.0254;798.63;-166.76
38.0449;800.59;-167.55
38.0645;802.54;-167.55
38.0840;804.50;-167.55
38.1036;806.45;-168.72
38.1231;808.41;-169.11
38.1427;810.36;-169.11
38.1622;812.32;-170.28
38.1818;814.27;-169.89
38.2013;816.23;-171.07
38.2209;818.18;-170.67
38.2404;820.14;-171.46
38.2600;822.09;-172.24
38.2795;824.05;-171.85
38.2991;826.00;-172.63
38.3186;827.96;-173.41
38.3382;829.91;-173.02
38.3577;831.87;-174.19
38.3773;833.82;-173.41
38.3968;835.78;-174.98
38.4164;837.73;-174.58
38.4359;839.69;-175.76
38.4555;841.64;-176.15
38.4750;843.60;-175.76
38.4946;845.55;-175.76
38.5141;847.51;-176.93
38.5337;849.46;-176.93
38.5532;851.42;-178.10
38.5728;853.37;-177.71
38.5923;855.33;-178.49
38.6119;857.28;-178.49
38.6314;859.24;-179.28
38.6510;861.19;-179.28
38.6705;863.15;-180.06
38.6901;865.10;-180.45
38.7096;867.06;-180.06
38.7292;869.01;-181.23
38.7487;870.97;-181.62
38.7683;872.92;-181.23
38.7878;874.88;-182.01
38.8074;876.83;-182.80
38.8269;878.79;-183.19
38.8465;880.74;-182.01
38.8660;882.70;-183.58
38.8856;884.65;-183.97
38.9051;886.61;-184.75
38.9247;888.56;-184.75
38.9442;890.52;-185.53
38.9638;892.47;-185.53
38.9833;894.43;-186.31
39.0029;896.38;-186.31
39.0224;898.34;-187.10
39.0420;900.29;-186.71
39.0615;902.25;-187.49
39.0811;904.20;-187.88
39.1007;906.16;-188.27
39.1202;908.11;-188.66
39.1398;910.07;-189.44
39.1593;912.02;-189.44
39.1789;913.98;-189.83
39.1984;915.93;-189.83
39.2180;917.89;-190.62
39.2375;919.84;-191.01
39.2571;921.80;-191.40
39.2766;923.75;-191.40
39.2962;925.71;-192.96
39.3157;927.66;-192.18
39.3353;929.62;-193.35
39.3548;931.57;-192.96
39.3744;933.53;-193.74
39.3939;935.48;-194.13
39.4135;937.44;-194.53
39.4330;939.39;-194.53
39.4526;941.35;-195.31
39.4721;943.30;-194.92
39.4917;945.26;-196.09
39.5112;947.21;-196.09
39.5308;949.17;-196.87
39.5503;951.12;-197.26
39.5699;953.08;-197.26
39.5894;955.03;-198.44
39.6090;956.99;-198.04
39.6285;958.94;-198.44
39.6481;960.90;-199.22
39.6676;962.85;-199.22
39.6872;964.81;-200.00
39.7067;966.76;-200.00
39.7263;968.72;-200.00
39.7458;970.67;-200.00
39.7654;972.63;-200.00
39.7849;974.58;-200.00
39.8045;976.54;-200.00
39.8240;978.49;-200.00
39.8436;980.45;-200.00
39.8631;982.40;-200.00
39.8827;984.36;-200.00
39.9022;986.31;-200.00
39.9218;988.27;-200.00
39.9413;990.22;-200.00
39.9609;992.18;-200.00
39.9804;994.13;-200.00
40.0000;996.09;-200.00
40.0195;998.04;-200.00
40.0391;1000.00;-200.00
40.0586;1000.00;-200.00
40.0782;998.04;-200.00
40.0977;996.09;-200.00
40.1173;994.13;-200.00
40.1368;992.18;-200.00
40.1564;990.22;-200.00
40.1759;988.27;-200.00
40.1955;986.31;-200.00
40.2150;984.36;-200.00
40.2346;982.40;-200.00
40.2541;980.45;-200.00
40.2737;978.49;-200.00
40.2932;976.54;-200.00
40.3128;974.58;-200.00
40.3323;972.63;-200.00
40.3519;970.67;-200.00
40.3714;968.72;-200.00
40.3910;966.76;-199.22
40.4105;964.81;-199.22
40.4301;962.85;-198.44
40.4496;960.90;-198.04
40.4692;958.94;-197.65
40.4887;956.99;-197.65
40.5083;955.03;-197.26
40.5278;953.08;-196.48
40.5474;951.12;-196.48
40.5669;949.17;-196.09
40.5865;947.21;-195.70
40.6060;945.26;-195.31
40.6256;943.30;-194.13
40.6451;941.35;-194.13
40.6647;939.39;-193.74
40.6842;937.44;-193.74
40.7038;935.48;-193.35
40.7233;933.53;-192.96
40.7429;931.57;-192.18
40.7624;929.62;-192.18
40.7820;927.66;-192.18
40.8015;925.71;-191.40
40.8211;923.75;-190.62
40.8406;921.80;-190.22
40.8602;919.84;-189.83
40.8797;917.89;-189.83
40.8993;915.93;-189.05
40.9188;913.98;-189.05
40.9384;912.02;-189.05
40.9579;910.07;-188.27
40.9775;908.11;-187.49
40.9970;906.16;-187.49
41.0166;904.20;-187.10
41.0361;902.25;-187.10
41.0557;900.29;-185.92
41.0752;898.34;-185.92
41.0948;896.38;-185.92
41.1143;894.43;-185.14
41.1339;892.47;-184.36
41.1534;890.52;-184.75
41.1730;888.56;-183.58
41.1925;886.61;-183.97
41.2121;884.65;-182.80
41.2316;882.70;-182.80
41.2512;880.74;-181.23
41.2707;878.79;-182.01
41.2903;876.83;-182.01
41.3098;874.88;-181.23
41.3294;872.92;-180.45
41.3489;870.97;-180.84
41.3685;869.01;-180.06
41.3880;867.06;-179.67
41.4076;865.10;-179.67
41.4271;863.15;-179.28
41.4467;861.19;-178.10
41.4662;859.24;-178.49
41.4858;857.28;-177.71
41.5053;855.33;-177.71
41.5249;853.37;-176.54
41.5444;851.42;-177.32
41.5640;849.46;-176.15
41.5835;847.51;-176.15
41.6031;845.55;-175.37
41.6226;843.60;-175.37
41.6422;841.64;-174.19
41.6617;839.69;-174.58
41.6813;837.73;-177.71
41.7008;835.78;-172.63
41.7204;833.82;-173.41
41.7399;831.87;-173.02
41.7595;829.91;-172.24
41.7790;827.96;-172.24
41.7986;826.00;-171.85
41.8181;824.05;-171.46
41.8377;822.09;-170.67
41.8572;820.14;-171.07
41.8768;818.18;-155.03
41.8963;816.23;-169.89
41.9159;814.27;-169.11
41.9354;812.32;-169.11
41.9550;810.36;-168.72
41.9745;808.41;-168.33
41.9941;806.45;-167.16
42.0136;804.50;-167.94
42.0332;802.54;-167.16
42.0527;800.59;-166.37
42.0723;798.63;-165.98
42.0918;796.68;-165.98
42.1114;794.72;-148.39
42.1310;792.77;-165.59
42.1505;790.81;-164.03
42.1701;788.86;-165.20
42.1896;786.90;-164.42
42.2092;784.95;-164.42
42.2287;782.99;-162.85
42.2483;781.04;-163.25
42.2678;779.08;-162.46
42.2874;777.13;-162.85
42.3069;775.17;-161.29
42.3265;773.22;-161.68
42.3460;771.26;-160.12
42.3656;769.31;-161.29
42.3851;767.35;-159.34
42.4047;765.40;-160.12
42.4242;763.44;-158.94
42.4438;761.49;-159.34
42.4633;759.53;-158.16
42.4829;757.58;-158.94
42.5024;755.62;-157.38
42.5220;753.67;-158.16
42.5415;751.71;-139.78
42.5611;749.76;-157.38
42.5806;747.80;-156.21
42.6002;745.85;-155.82
42.6197;743.89;-155.82
42.6393;741.94;-155.82
42.6588;739.98;-154.64
42.6784;738.03;-155.03
42.6979;736.07;-154.25
42.7175;734.12;-154.25
42.7370;732.16;-152.69
42.7566;730.21;-153.47
42.7761;728.25;-152.30
42.7957;726.30;-152.69
42.8152;724.34;-151.12
42.8348;722.39;-151.91
42.8543;720.43;-149.95
42.8739;718.48;-150.73
42.8934;716.52;-149.95
42.9130;714.57;-149.95
42.9325;712.61;-132.36
42.9521;710.65;-149.56
42.9716;708.70;-148.39
42.9912;706.74;-148.78
43.0107;704.79;-148.39
43.0303;702.83;-148.00
43.0498;700.88;-147.21
43.0694;698.92;-146.04
43.0889;696.97;-146.43
43.1085;695.01;-145.65
43.1280;693.06;-144.48
43.1476;691.10;-145.65
43.1671;689.15;-127.66
43.1867;687.19;-144.87
43.2062;685.24;-143.30
43.2258;683.28;-143.70
43.2453;681.33;-142.52
43.2649;679.37;-143.70
43.2844;677.42;-141.74
43.3040;675.46;-141.74
43.3235;673.51;-140.96
43.3431;671.55;-141.35
43.3626;669.60;-140.18
43.3822;667.64;-140.96
43.4017;665.69;-140.18
43.4213;663.73;-140.57
43.4408;661.78;-139.39
43.4604;659.82;-139.39
43.4799;657.87;-138.61
43.4995;655.91;-138.22
43.5190;653.96;-138.22
43.5386;652.00;-135.09
43.5581;650.05;-136.27
43.5777;648.09;-135.87
43.5972;646.14;-135.87
43.6168;644.18;-136.27
43.6363;642.23;-134.70
43.6559;640.27;-136.27
43.6754;638.32;-134.31
43.6950;636.36;-133.92
43.7145;634.41;-133.14
43.7341;632.45;-133.53
43.7536;630.50;-132.36
43.7732;628.54;-133.14
43.7927;626.59;-131.57
43.8123;624.63;-132.36
43.8318;622.68;-130.79
43.8514;620.72;-131.96
43.8709;618.77;-131.18
43.8905;616.81;-130.79
43.9100;614.86;-130.40
43.9296;612.90;-128.84
43.9491;610.95;-128.84
43.9687;608.99;-128.05
43.9882;607.04;-127.66
44.0078;605.08;-124.54
44.0273;603.13;-127.27
44.0469;601.17;-127.27
44.0664;599.22;-127.27
44.0860;597.26;-125.71
44.1055;595.31;-125.32
44.1251;593.35;-126.49
44.1446;591.40;-125.71
44.1642;589.44;-125.32
44.1837;587.49;-108.50
44.2033;585.53;-123.75
44.2228;583.58;-125.71
44.2424;581.62;-123.75
44.2619;579.67;-122.19
44.2815;577.71;-123.75
44.3010;575.76;-122.97
44.3206;573.80;-121.02
44.3401;571.85;-121.80
44.3597;569.89;-121.80
44.3792;567.94;-104.59
44.3988;565.98;-119.45
44.4183;564.03;-119.06
44.4379;562.07;-118.67
44.4574;560.12;-118.67
44.4770;558.16;-117.89
44.4965;556.21;-117.89
44.5161;554.25;-119.45
44.5356;552.30;-117.11
44.5552;550.34;-118.67
44.5747;548.39;-116.32
44.5943;546.43;-117.11
44.6138;544.48;-100.68
44.6334;542.52;-116.32
44.6529;540.57;-115.15
44.6725;538.61;-115.15
44.6920;536.66;-115.15
44.7116;534.70;-114.37
44.7311;532.75;-113.20
44.7507;530.79;-112.41
44.7702;528.84;-113.98
44.7898;526.88;-111.63
44.8093;524.93;-111.63
44.8289;522.97;-110.85
44.8484;521.02;-111.63
44.8680;519.06;-94.43
44.8875;517.11;-111.63
44.9071;515.15;-93.65
44.9266;513.20;-108.50
44.9462;511.24;-109.29
44.9657;509.29;-109.68
44.9853;507.33;-108.11
45.0048;505.38;-107.33
45.0244;503.42;-108.11
45.0439;501.47;-106.55
45.0635;499.51;-106.94
45.0830;497.56;-105.38
45.1026;495.60;-106.16
45.1222;493.65;-106.94
45.1417;491.69;-90.13
45.1613;489.74;-103.81
45.1808;487.78;-105.77
45.2004;485.83;-87.78
45.2199;483.87;-104.99
45.2395;481.92;-87.39
45.2590;479.96;-87.39
45.2786;478.01;-103.42
45.2981;476.05;-101.86
45.3177;474.10;-102.64
45.3372;472.14;-85.43
45.3568;470.19;-84.65
45.3763;468.23;-101.08
45.3959;466.28;-84.26
45.4154;464.32;-83.48
45.4350;462.37;-99.90
45.4545;460.41;-100.29
45.4741;458.46;-97.17
45.4936;456.50;-98.73
45.5132;454.55;-98.73
45.5327;452.59;-97.17
45.5523;450.64;-80.74
45.5718;448.68;-96.77
45.5914;446.73;-95.99
45.6109;444.77;-96.38
45.6305;442.82;-79.96
45.6500;440.86;-79.18
45.6696;438.91;-96.77
45.6891;436.95;-79.18
45.7087;435.00;-78.40
45.7282;433.04;-92.08
45.7478;431.09;-94.82
45.7673;429.13;-92.47
45.7869;427.17;-91.30
45.8064;425.22;-90.52
45.8260;423.26;-93.26
45.8455;421.31;-76.05
45.8651;419.35;-74.88
45.8846;417.40;-88.95
45.9042;415.44;-91.69
45.9237;413.49;-89.74
45.9433;411.53;-87.39
45.9628;409.58;-89.74
45.9824;407.62;-90.13
46.0019;405.67;-88.95
46.0215;403.71;-71.75
46.0410;401.76;-87.78
46.0606;399.80;-87.39
46.0801;397.85;-87.78
46.0997;395.89;-71.36
46.1192;393.94;-86.22
46.1388;391.98;-86.22
46.1583;390.03;-85.04
46.1779;388.07;-69.01
46.1974;386.12;-84.65
46.2170;384.16;-85.04
46.2365;382.21;-68.62
46.2561;380.25;-67.06
46.2756;378.30;-83.09
46.2952;376.34;-83.48
46.3147;374.39;-81.92
46.3343;372.43;-79.96
46.3538;370.48;-81.52
46.3734;368.52;-82.70
46.3929;366.57;-65.10
46.4125;364.61;-64.32
46.4320;362.66;-79.96
46.4516;360.70;-80.74
46.4711;358.75;-79.18
46.4907;356.79;-62.37
46.5102;354.84;-78.79
46.5298;352.88;-79.57
46.5493;350.93;-77.22
46.5689;348.97;-60.41
46.5884;347.02;-76.83
46.6080;345.06;-76.05
46.6275;343.11;-60.80
46.6471;341.15;-76.44
46.6666;339.20;-76.44
46.6862;337.24;-76.83
46.7057;335.29;-74.88
46.7253;333.33;-74.88
46.7448;331.38;-75.66
46.7644;329.42;-74.88
46.7839;327.47;-72.92
46.8035;325.51;-57.28
46.8230;323.56;-62.76
46.8426;321.60;-73.31
46.8621;319.65;-71.75
46.8817;317.69;-54.55
46.9012;315.74;-70.58
46.9208;313.78;-71.75
46.9403;311.83;-69.79
46.9599;309.87;-52.98
46.9794;307.92;-69.40
46.9990;305.96;-70.58
47.0185;304.01;-69.40
47.0381;302.05;-51.81
47.0576;300.10;-51.42
47.0772;298.14;-69.01
47.0967;296.19;-66.28
47.1163;294.23;-50.24
47.1358;292.28;-65.49
47.1554;290.32;-67.45
47.1749;288.37;-65.49
47.1945;286.41;-48.29
47.2140;284.46;-64.71
47.2336;282.50;-65.88
47.2531;280.55;-63.93
47.2727;278.59;-46.33
47.2922;276.64;-64.32
47.3118;274.68;-64.71
47.3313;272.73;-45.94
47.3509;270.77;-46.33
47.3704;268.82;-45.16
47.3900;266.86;-62.37
47.4095;264.91;-61.97
47.4291;262.95;-43.21
47.4486;261.00;-43.60
47.4682;259.04;-60.41
47.4877;257.09;-60.41
47.5073;255.13;-43.21
47.5268;253.18;-58.06
47.5464;251.22;-59.24
47.5659;249.27;-58.46
47.5855;247.31;-40.47
47.6050;245.36;-40.86
47.6246;243.40;-57.28
47.6441;241.45;-40.47
47.6637;239.49;-39.30
47.6832;237.54;-54.94
47.7028;235.58;-56.11
47.7223;233.63;-54.94
47.7419;231.67;-38.91
47.7614;229.72;-52.98
47.7810;227.76;-54.55
47.8005;225.81;-53.76
47.8201;223.85;-36.95
47.8396;221.90;-51.42
47.8592;219.94;-52.20
47.8787;217.99;-52.98
47.8983;216.03;-35.39
47.9178;214.08;-34.60
47.9374;212.12;-51.81
47.9569;210.17;-49.85
47.9765;208.21;-33.04
47.9960;206.26;-47.90
48.0156;204.30;-49.46
48.0351;202.35;-47.90
48.0547;200.39;-32.26
48.0742;198.44;-31.09
48.0938;196.48;-48.68
48.1133;194.53;-46.33
48.1329;192.57;-29.91
48.1525;190.62;-46.73
48.1720;188.66;-46.73
48.1916;186.71;-28.35
48.2111;184.75;-28.35
48.2307;182.80;-29.13
48.2502;180.84;-45.16
48.2698;178.89;-44.77
48.2893;176.93;-27.17
48.3089;174.98;-26.78
48.3284;173.02;-43.21
48.3480;171.07;-42.03
48.3675;169.11;-25.22
48.3871;167.16;-42.03
48.4066;165.20;-40.08
48.4262;163.25;-40.47
48.4457;161.29;-23.66
48.4653;159.34;-38.12
48.4848;157.38;-40.08
48.5044;155.43;-39.30
48.5239;153.47;-22.09
48.5435;151.52;-39.30
48.5630;149.56;-38.12
48.5826;147.61;-22.09
48.6021;145.65;-21.70
48.6217;143.70;-35.00
48.6412;141.74;-37.34
48.6608;139.78;-37.34
48.6803;137.83;-21.31
48.6999;135.87;-18.57
48.7194;133.92;-36.17
48.7390;131.96;-36.17
48.7585;130.01;-18.96
48.7781;128.05;-17.40
48.7976;126.10;-35.39
48.8172;124.14;-33.04
48.8367;122.19;-15.84
48.8563;120.23;-30.30
48.8758;118.28;-32.26
48.8954;116.32;-16.23
48.9149;114.37;-14.27
48.9345;112.41;-29.13
48.9540;110.46;-30.69
48.9736;108.50;-31.48
48.9931;106.55;-12.71
49.0127;104.59;-12.71
49.0322;102.64;-29.91
49.0518;100.68;-29.52
49.0713;98.73;-24.44
49.0909;96.77;-10.36
49.1104;94.82;-25.22
49.1300;92.86;-26.00
49.1495;90.91;-26.78
49.1691;88.95;-26.00
49.1886;87.00;-8.80
49.2082;85.04;-9.97
49.2277;83.09;-25.22
49.2473;81.13;-9.19
49.2668;79.18;-25.61
49.2864;77.22;-25.61
49.3059;75.27;-25.22
49.3255;73.31;-25.61
49.3450;71.36;-23.66
49.3646;69.40;-24.83
49.3841;67.45;-23.26
49.4037;65.49;-23.66
49.4232;63.54;-22.48
49.4428;61.58;-22.48
49.4623;59.63;-21.31
49.4819;57.67;-22.09
49.5014;55.72;-21.31
49.5210;53.76;-20.53
49.5405;51.81;-20.14
49.5601;49.85;-20.14
49.5796;47.90;-18.18
49.5992;45.94;-19.75
49.6187;43.99;-18.57
49.6383;42.03;-18.18
49.6578;40.08;-17.79
49.6774;38.12;-17.79
49.6969;36.17;-16.62
49.7165;34.21;-17.01
49.7360;32.26;-16.62
49.7556;30.30;-16.62
49.7751;28.35;-15.05
49.7947;26.39;-15.84
49.8142;24.44;-15.05
49.8338;22.48;-14.66
49.8533;20.53;-13.88
49.8729;18.57;-13.49
49.8924;16.62;-13.49
49.9120;14.66;-12.71
49.9315;12.71;-11.14
49.9511;10.75;-12.71
49.9706;8.80;-11.93
49.9902;6.84;-11.53
50.0097;4.89;8.02
50.0293;2.93;-9.97
50.0488;0.98;6.45
50.0684;-0.98;8.41
50.0879;-2.93;7.23
50.1075;-4.89;-8.02
50.1270;-6.84;10.36
50.1466;-8.80;8.41
50.1661;-10.75;11.14
50.1857;-12.71;10.75
50.2052;-14.66;11.53
50.2248;-16.62;11.93
50.2443;-18.57;12.71
50.2639;-20.53;11.93
50.2834;-22.48;13.10
50.3030;-24.44;13.88
50.3225;-26.39;13.49
50.3421;-28.35;14.27
50.3616;-30.30;12.71
50.3812;-32.26;14.66
50.4007;-34.21;14.27
50.4203;-36.17;14.66
50.4398;-38.12;15.84
50.4594;-40.08;16.62
50.4789;-42.03;15.84
50.4985;-43.99;17.40
50.5180;-45.94;16.23
50.5376;-47.90;17.01
50.5571;-49.85;18.18
50.5767;-51.81;17.79
50.5962;-53.76;18.57
50.6158;-55.72;19.35
50.6353;-57.67;18.57
50.6549;-59.63;19.75
50.6744;-61.58;19.35
50.6940;-63.54;20.53
50.7135;-65.49;20.92
50.7331;-67.45;20.92
50.7526;-69.40;21.31
50.7722;-71.36;22.09
50.7917;-73.31;21.70
50.8113;-75.27;22.87
50.8308;-77.22;23.26
50.8504;-79.18;23.66
50.8699;-81.13;22.87
50.8895;-83.09;24.44
50.9090;-85.04;22.09
50.9286;-87.00;25.22
50.9481;-88.95;25.61
50.9677;-90.91;26.00
50.9872;-92.86;26.39
51.0068;-94.82;26.39
51.0263;-96.77;27.57
51.0459;-98.73;27.17
51.0654;-100.68;11.53
51.0850;-102.64;25.61
51.1045;-104.59;27.57
51.1241;-106.55;12.32
51.1436;-108.50;27.57
51.1632;-110.46;29.91
51.1828;-112.41;16.23
51.2023;-114.37;13.88
51.2219;-116.32;28.74
51.2414;-118.28;31.48
51.2610;-120.23;31.09
51.2805;-122.19;14.66
51.3001;-124.14;16.23
51.3196;-126.10;32.65
51.3392;-128.05;18.18
51.3587;-130.01;17.40
51.3783;-131.96;31.48
51.3978;-133.92;34.21
51.4174;-135.87;20.14
51.4369;-137.83;18.18
51.4565;-139.78;18.18
51.4760;-141.74;35.39
51.4956;-143.70;22.09
51.5151;-145.65;18.57
51.5347;-147.61;35.78
51.5542;-149.56;37.34
51.5738;-151.52;24.83
51.5933;-153.47;22.09
51.6129;-155.43;36.17
51.6324;-157.38;38.91
51.6520;-159.34;24.05
51.6715;-161.29;23.26
51.6911;-163.25;39.30
51.7106;-165.20;38.12
51.7302;-167.16;25.22
51.7497;-169.11;24.05
51.7693;-171.07;26.39
51.7888;-173.02;41.64
51.8084;-174.98;41.25
51.8279;-176.93;26.78
51.8475;-178.89;40.08
51.8670;-180.84;41.64
51.8866;-182.80;43.21
51.9061;-184.75;27.96
51.9257;-186.71;42.42
51.9452;-188.66;45.16
51.9648;-190.62;44.38
51.9843;-192.57;29.13
52.0039;-194.53;30.69
52.0234;-196.48;45.94
52.0430;-198.44;46.33
52.0625;-200.39;31.87
52.0821;-202.35;31.09
52.1016;-204.30;47.90
52.1212;-206.26;47.12
52.1407;-208.21;31.87
52.1603;-210.17;46.33
52.1798;-212.12;49.07
52.1994;-214.08;48.68
52.2189;-216.03;35.00
52.2385;-217.99;50.64
52.2580;-219.94;50.64
52.2776;-221.90;51.42
52.2971;-223.85;36.17
52.3167;-225.81;50.24
52.3362;-227.76;52.98
52.3558;-229.72;51.42
52.3753;-231.67;38.12
52.3949;-233.63;52.98
52.4144;-235.58;53.76
52.4340;-237.54;53.76
52.4535;-239.49;40.08
52.4731;-241.45;53.37
52.4926;-243.40;55.72
52.5122;-245.36;53.37
52.5317;-247.31;40.08
52.5513;-249.27;54.94
52.5708;-251.22;56.89
52.5904;-253.18;55.72
52.6099;-255.13;43.21
52.6295;-257.09;43.60
52.6490;-259.04;58.06
52.6686;-261.00;59.24
52.6881;-262.95;43.60
52.7077;-264.91;43.21
52.7272;-266.86;60.41
52.7468;-268.82;45.94
52.7663;-270.77;45.16
52.7859;-272.73;59.63
52.8054;-274.68;61.58
52.8250;-276.64;61.97
52.8445;-278.59;47.12
52.8641;-280.55;60.41
52.8836;-282.50;62.76
52.9032;-284.46;63.15
52.9227;-286.41;48.68
52.9423;-288.37;64.71
52.9618;-290.32;65.10
52.9814;-292.28;63.15
53.0009;-294.23;64.71
53.0205;-296.19;50.64
53.0400;-298.14;64.32
53.0596;-300.10;66.28
53.0791;-302.05;52.59
53.0987;-304.01;65.49
53.1182;-305.96;68.23
53.1378;-307.92;67.84
53.1573;-309.87;52.59
53.1769;-311.83;67.06
53.1964;-313.78;69.01
53.2160;-315.74;68.23
53.2355;-317.69;54.55
53.2551;-319.65;68.62
53.2746;-321.60;69.79
53.2942;-323.56;56.89
53.3137;-325.51;56.11
53.3333;-327.47;69.79
53.3528;-329.42;72.92
53.3724;-331.38;72.14
53.3919;-333.33;57.28
53.4115;-335.29;71.36
53.4310;-337.24;73.31
53.4506;-339.20;73.31
53.4701;-341.15;61.19
53.4897;-343.11;74.88
53.5092;-345.06;74.10
53.5288;-347.02;76.05
53.5483;-348.97;60.41
53.5679;-350.93;73.70
53.5874;-352.88;76.83
53.6070;-354.84;76.83
53.6265;-356.79;62.37
53.6461;-358.75;78.01
53.6656;-360.70;78.01
53.6852;-362.66;77.61
53.7047;-364.61;65.88
53.7243;-366.57;77.61
53.7438;-368.52;79.96
53.7634;-370.48;79.57
53.7829;-372.43;65.88
53.8025;-374.39;66.28
53.8220;-376.34;81.13
53.8416;-378.30;81.52
53.8611;-380.25;67.06
53.8807;-382.21;67.45
53.9002;-384.16;81.92
53.9198;-386.12;81.92
53.9393;-388.07;70.58
53.9589;-390.03;69.40
53.9784;-391.98;85.43
53.9980;-393.94;84.65
54.0175;-395.89;71.75
54.0371;-397.85;70.58
54.0566;-399.80;84.26
54.0762;-401.76;87.00
54.0957;-403.71;71.36
54.1153;-405.67;85.43
54.1348;-407.62;88.56
54.1544;-409.58;87.39
54.1739;-411.53;72.53
54.1935;-413.49;88.56
54.2131;-415.44;88.95
54.2326;-417.40;89.74
54.2522;-419.35;74.88
54.2717;-421.31;88.56
54.2913;-423.26;90.13
54.3108;-425.22;91.30
54.3304;-427.18;76.83
54.3499;-429.13;90.13
54.3695;-431.09;92.86
54.3890;-433.04;92.86
54.4086;-435.00;92.47
54.4281;-436.95;91.69
54.4477;-438.91;93.26
54.4672;-440.86;93.26
54.4868;-442.82;79.96
54.5063;-444.77;80.35
54.5259;-446.73;94.82
54.5454;-448.68;95.60
54.5650;-450.64;94.82
54.5845;-452.59;93.65
54.6041;-454.55;97.56
54.6236;-456.50;97.56
54.6432;-458.46;81.92
54.6627;-460.41;96.38
54.6823;-462.37;98.73
54.7018;-464.32;99.51
54.7214;-466.28;84.26
54.7409;-468.23;84.65
54.7605;-470.19;99.51
54.7800;-472.14;101.08
54.7996;-474.10;98.34
54.8191;-476.05;101.47
54.8387;-478.01;86.61
54.8582;-479.96;87.00
54.8778;-481.92;102.25
54.8973;-483.87;87.00
54.9169;-485.83;101.08
54.9364;-487.78;103.03
54.9560;-489.74;88.56
54.9755;-491.69;104.59
54.9951;-493.65;88.56
55.0146;-495.60;90.13
55.0342;-497.56;105.38
55.0537;-499.51;104.99
55.0733;-501.47;106.94
55.0928;-503.42;91.69
55.1124;-505.38;105.77
55.1319;-507.33;106.94
55.1515;-509.29;106.16
55.1710;-511.24;108.11
55.1906;-513.20;106.16
55.2101;-515.15;108.90
55.2297;-517.11;108.50
55.2492;-519.06;110.07
55.2688;-521.02;94.04
55.2883;-522.97;110.46
55.3079;-524.93;109.68
55.3274;-526.88;110.85
55.3470;-528.84;110.46
55.3665;-530.79;111.63
55.3861;-532.75;97.56
55.4056;-534.70;97.95
55.4252;-536.66;113.59
55.4447;-538.61;99.51
55.4643;-540.57;111.63
55.4838;-542.52;113.98
55.5034;-544.48;99.51
55.5229;-546.43;113.59
55.5425;-548.39;101.08
55.5620;-550.34;115.15
55.5816;-552.30;101.47
55.6011;-554.25;116.32
55.6207;-556.21;102.64
55.6402;-558.16;117.11
55.6598;-560.12;103.03
55.6793;-562.07;117.89
55.6989;-564.03;117.50
55.7184;-565.98;119.84
55.7380;-567.94;117.89
55.7575;-569.89;120.23
55.7771;-571.85;106.55
55.7966;-573.80;119.45
55.8162;-575.76;105.38
55.8357;-577.71;120.63
55.8553;-579.67;107.72
55.8748;-581.62;121.02
55.8944;-583.58;121.41
55.9139;-585.53;123.36
55.9335;-587.49;108.11
55.9530;-589.44;123.36
55.9726;-591.40;123.75
55.9921;-593.35;123.36
56.0117;-595.31;109.68
56.0312;-597.26;125.32
56.0508;-599.22;124.54
56.0703;-601.17;125.71
56.0899;-603.13;123.75
56.1094;-605.08;126.10
56.1290;-607.04;126.49
56.1485;-608.99;126.10
56.1681;-610.95;114.76
56.1876;-612.90;127.66
56.2072;-614.86;128.05
56.2267;-616.81;128.84
56.2463;-618.77;112.81
56.2658;-620.72;130.40
56.2854;-622.68;116.32
56.3049;-624.63;130.79
56.3245;-626.59;117.11
56.3440;-628.54;130.79
56.3636;-630.50;131.18
56.3831;-632.45;132.36
56.4027;-634.41;130.40
56.4222;-636.36;132.75
56.4418;-638.32;118.28
56.4613;-640.27;133.92
56.4809;-642.23;133.53
56.5004;-644.18;133.14
56.5200;-646.14;134.31
56.5395;-648.09;135.87
56.5591;-650.05;134.31
56.5786;-652.00;134.31
56.5982;-653.96;124.14
56.6177;-655.91;137.05
56.6373;-657.87;122.58
56.6568;-659.82;136.66
56.6764;-661.78;122.19
56.6959;-663.73;137.44
56.7155;-665.69;121.02
56.7350;-667.64;138.61
56.7546;-669.60;137.83
56.7741;-671.55;139.78
56.7937;-673.51;127.66
56.8132;-675.46;140.18
56.8328;-677.42;132.75
56.8523;-679.37;141.35
56.8719;-681.33;126.49
56.8914;-683.28;142.91
56.9110;-685.24;140.57
56.9305;-687.19;140.96
56.9501;-689.15;143.30
56.9696;-691.10;143.70
56.9892;-693.06;143.70
57.0087;-695.01;142.13
57.0283;-696.97;144.48
57.0478;-698.92;144.87
57.0674;-700.88;143.30
57.0869;-702.83;146.04
57.1065;-704.79;145.65
57.1260;-706.74;146.43
57.1456;-708.70;146.43
57.1651;-710.66;146.82
57.1847;-712.61;146.82
57.2042;-714.57;148.00
57.2238;-716.52;147.61
57.2434;-718.48;149.56
57.2629;-720.43;135.09
57.2825;-722.39;148.39
57.3020;-724.34;149.95
57.3216;-726.30;149.95
57.3411;-728.25;150.34
57.3607;-730.21;152.30
57.3802;-732.16;151.91
57.3998;-734.12;152.30
57.4193;-736.07;151.91
57.4389;-738.03;153.08
57.4584;-739.98;152.69
57.4780;-741.94;153.08
57.4975;-743.89;152.69
57.5171;-745.85;155.43
57.5366;-747.80;154.25
57.5562;-749.76;154.64
57.5757;-751.71;153.47
57.5953;-753.67;156.21
57.6148;-755.62;155.82
57.6344;-757.58;156.99
57.6539;-759.53;156.99
57.6735;-761.49;158.55
57.6930;-763.44;156.60
57.7126;-765.40;158.16
57.7321;-767.35;156.99
57.7517;-769.31;159.73
57.7712;-771.26;158.94
57.7908;-773.22;160.12
57.8103;-775.17;160.12
57.8299;-777.13;160.51
57.8494;-779.08;160.90
57.8690;-781.04;160.90
57.8885;-782.99;160.90
57.9081;-784.95;162.07
57.9276;-786.90;162.46
57.9472;-788.86;162.85
57.9667;-790.81;162.46
57.9863;-792.77;162.85
58.0058;-794.72;164.03
58.0254;-796.68;165.20
58.0449;-798.63;164.81
58.0645;-800.59;165.20
58.0840;-802.54;165.98
58.1036;-804.50;165.20
58.1231;-806.45;152.30
58.1427;-808.41;165.59
58.1622;-810.36;166.76
58.1818;-812.32;167.55
58.2013;-814.27;167.94
58.2209;-816.23;167.94
58.2404;-818.18;168.72
58.2600;-820.14;168.33
58.2795;-822.09;169.50
58.2991;-824.05;169.11
58.3186;-826.00;169.89
58.3382;-827.96;169.50
58.3577;-829.91;170.67
58.3773;-831.87;171.46
58.3968;-833.82;171.07
58.4164;-835.78;172.24
58.4359;-837.73;172.63
58.4555;-839.69;173.41
58.4750;-841.64;173.41
58.4946;-843.60;174.58
58.5141;-845.55;160.90
58.5337;-847.51;174.98
58.5532;-849.46;173.41
58.5728;-851.42;174.98
58.5923;-853.37;175.37
58.6119;-855.33;174.98
58.6314;-857.28;176.15
58.6510;-859.24;176.54
58.6705;-861.19;176.93
58.6901;-863.15;176.93
58.7096;-865.10;178.89
58.7292;-867.06;177.71
58.7487;-869.01;177.32
58.7683;-870.97;178.49
58.7878;-872.92;179.28
58.8074;-874.88;178.10
58.8269;-876.83;180.84
58.8465;-878.79;181.23
58.8660;-880.74;180.84
58.8856;-882.70;181.23
58.9051;-884.65;182.01
58.9247;-886.61;182.40
58.9442;-888.56;171.07
58.9638;-890.52;182.01
58.9833;-892.47;183.58
59.0029;-894.43;183.58
59.0224;-896.38;184.75
59.0420;-898.34;183.58
59.0615;-900.29;184.36
59.0811;-902.25;185.92
59.1006;-904.20;185.14
59.1202;-906.16;186.31
59.1397;-908.11;173.41
59.1593;-910.07;186.71
59.1788;-912.02;187.49
59.1984;-913.98;187.88
59.2179;-915.93;186.71
59.2375;-917.89;187.49
59.2570;-919.84;189.44
59.2766;-921.80;189.44
59.2961;-923.75;189.44
59.3157;-925.71;190.22
59.3352;-927.66;190.22
59.3548;-929.62;191.01
59.3743;-931.57;190.22
59.3939;-933.53;191.01
59.4134;-935.48;192.18
59.4330;-937.44;192.18
59.4525;-939.39;192.57
59.4721;-941.35;192.18
59.4916;-943.30;192.96
59.5112;-945.26;193.74
59.5307;-947.21;192.96
59.5503;-949.17;194.53
59.5698;-951.12;193.74
59.5894;-953.08;195.70
59.6089;-955.03;195.31
59.6285;-956.99;196.48
59.6480;-958.94;196.09
59.6676;-960.90;196.87
59.6871;-962.85;197.65
59.7067;-964.81;198.04
59.7262;-966.76;197.65
59.7458;-968.72;198.04
59.7653;-970.67;198.83
59.7849;-972.63;199.61
59.8044;-974.58;199.61
59.8240;-976.54;200.00
59.8435;-978.49;200.00
59.8631;-980.45;200.00
59.8826;-982.40;200.00
59.9022;-984.36;200.00
59.9217;-986.31;200.00
59.9413;-988.27;200.00
59.9608;-990.22;200.00
59.9804;-992.18;200.00
59.9999;-994.13;200.00
60.0195;-996.09;200.00
60.0390;-998.05;200.00
60.0586;-1000.00;200.00
60.0781;-1000.00;200.00
60.0977;-998.05;200.00
60.1172;-996.09;200.00
60.1368;-994.13;200.00
60.1563;-992.18;200.00
60.1759;-990.22;200.00
60.1954;-988.27;200.00
60.2150;-986.31;200.00
60.2346;-984.36;198.83
60.2541;-982.40;200.00
60.2737;-980.45;200.00
60.2932;-978.49;198.44
60.3128;-976.54;198.44
60.3323;-974.58;199.22
60.3519;-972.63;199.22
60.3714;-970.67;198.04
60.3910;-968.72;198.44
60.4105;-966.76;197.65
60.4301;-964.81;197.26
60.4496;-962.85;195.31
60.4692;-960.90;196.87
60.4887;-958.94;196.09
60.5083;-956.99;195.31
60.5278;-955.03;195.31
60.5474;-953.08;194.53
60.5669;-951.12;194.53
60.5865;-949.17;193.74
60.6060;-947.21;193.74
60.6256;-945.26;192.96
60.6451;-943.30;192.18
60.6647;-941.35;191.40
60.6842;-939.39;191.79
60.7038;-937.44;189.44
60.7233;-935.48;190.22
60.7429;-933.53;190.22
60.7624;-931.57;189.44
60.7820;-929.62;190.62
60.8015;-927.66;189.05
60.8211;-925.71;189.44
60.8406;-923.75;189.05
60.8602;-921.80;187.88
60.8797;-919.84;187.10
60.8993;-917.89;187.88
60.9188;-915.93;186.31
60.9384;-913.98;186.71
60.9579;-912.02;186.31
60.9775;-910.07;185.92
60.9970;-908.11;185.53
61.0166;-906.16;184.36
61.0361;-904.20;185.53
61.0557;-902.25;184.36
61.0752;-900.29;184.75
61.0948;-898.34;183.19
61.1143;-896.38;181.62
61.1339;-894.43;183.58
61.1534;-892.47;169.89
61.1730;-890.52;182.80
61.1925;-888.56;181.62
61.2121;-886.61;180.84
61.2316;-884.65;180.06
61.2512;-882.70;181.23
61.2707;-880.74;178.49
61.2903;-878.79;179.28
61.3098;-876.83;179.28
61.3294;-874.88;178.89
61.3489;-872.92;178.89
61.3685;-870.97;177.32
61.3880;-869.01;178.10
61.4076;-867.06;177.32
61.4271;-865.10;176.93
61.4467;-863.15;177.32
61.4662;-861.19;176.54
61.4858;-859.24;175.76
61.5053;-857.28;174.58
61.5249;-855.33;174.19
61.5444;-853.37;162.46
61.5640;-851.42;173.80
61.5835;-849.46;174.19
61.6031;-847.51;174.58
61.6226;-845.55;173.80
61.6422;-843.60;172.63
61.6617;-841.64;172.63
61.6813;-839.69;172.24
61.7008;-837.73;172.63
61.7204;-835.78;171.07
61.7399;-833.82;170.67
61.7595;-831.87;171.07
61.7790;-829.91;168.72
61.7986;-827.96;169.11
61.8181;-826.00;169.89
61.8377;-824.05;168.33
61.8572;-822.09;167.55
61.8768;-820.14;167.16
61.8963;-818.18;167.16
61.9159;-816.23;167.16
61.9354;-814.27;164.81
61.9550;-812.32;166.37
61.9745;-810.36;154.25
61.9941;-808.41;165.98
62.0136;-806.45;165.59
62.0332;-804.50;163.64
62.0527;-802.54;164.81
62.0723;-800.59;164.81
62.0918;-798.63;163.25
62.1114;-796.68;164.03
62.1309;-794.72;162.85
62.1505;-792.77;162.46
62.1700;-790.81;162.07
62.1896;-788.86;161.29
62.2091;-786.90;160.90
62.2287;-784.95;161.29
62.2482;-782.99;161.29
62.2678;-781.04;160.51
62.2873;-779.08;158.94
62.3069;-777.13;160.12
62.3264;-775.17;158.55
62.3460;-773.22;158.55
62.3655;-771.26;158.16
62.3851;-769.31;158.94
62.4046;-767.35;156.99
62.4242;-765.40;156.99
62.4437;-763.44;156.60
62.4633;-761.49;156.21
62.4828;-759.53;156.21
62.5024;-757.58;155.03
62.5219;-755.62;155.43
62.5415;-753.67;155.43
62.5610;-751.71;153.47
62.5806;-749.76;153.86
62.6001;-747.80;151.12
62.6197;-745.85;153.47
62.6392;-743.89;152.69
62.6588;-741.94;152.69
62.6783;-739.98;152.69
62.6979;-738.03;150.34
62.7174;-736.07;151.52
62.7370;-734.12;151.12
62.7565;-732.16;149.56
62.7761;-730.21;148.78
62.7956;-728.25;137.44
62.8152;-726.30;149.95
62.8347;-724.34;148.00
62.8543;-722.39;148.39
62.8738;-720.43;148.00
62.8934;-718.48;148.39
62.9129;-716.52;146.04
62.9325;-714.57;148.00
62.9520;-712.61;146.43
62.9716;-710.66;146.82
62.9911;-708.70;146.43
63.0107;-706.74;145.26
63.0302;-704.79;145.26
63.0498;-702.83;144.48
63.0693;-700.88;144.09
63.0889;-698.92;144.09
63.1084;-696.97;142.91
63.1280;-695.01;143.30
63.1475;-693.06;142.91
63.1671;-691.10;142.13
63.1866;-689.15;140.18
63.2062;-687.19;141.35
63.2257;-685.24;127.66
63.2453;-683.28;141.35
63.2649;-681.33;126.49
63.2844;-679.37;140.96
63.3040;-677.42;139.78
63.3235;-675.46;139.78
63.3431;-673.51;125.71
63.3626;-671.55;139.00
63.3822;-669.60;124.54
63.4017;-667.64;137.83
63.4213;-665.69;123.36
63.4408;-663.73;136.66
63.4604;-661.78;136.27
63.4799;-659.82;135.87
63.4995;-657.87;123.75
63.5190;-655.91;134.70
63.5386;-653.96;123.75
63.5581;-652.00;134.70
63.5777;-650.05;133.53
63.5972;-648.09;133.53
63.6168;-646.14;121.41
63.6363;-644.18;133.14
63.6559;-642.23;120.23
63.6754;-640.27;131.57
63.6950;-638.32;119.06
63.7145;-636.36;131.96
63.7341;-634.41;117.89
63.7536;-632.45;131.57
63.7732;-630.50;130.40
63.7927;-628.54;130.79
63.8123;-626.59;117.89
63.8318;-624.63;127.66
63.8514;-622.68;115.15
63.8709;-620.72;128.84
63.8905;-618.77;127.66
63.9100;-616.81;126.88
63.9296;-614.86;113.59
63.9491;-612.90;127.27
63.9687;-610.95;114.37
63.9882;-608.99;126.10
64.0078;-607.04;125.32
64.0273;-605.08;125.32
64.0469;-603.13;112.41
64.0664;-601.17;124.93
64.0860;-599.22;122.58
64.1055;-597.26;122.97
64.1251;-595.31;110.46
64.1446;-593.35;123.36
64.1642;-591.40;122.58
64.1838;-589.44;121.02
64.2033;-587.49;121.41
64.2229;-585.53;122.19
64.2424;-583.58;107.33
64.2620;-581.62;120.63
64.2815;-579.67;107.33
64.3011;-577.71;120.63
64.3206;-575.76;106.16
64.3402;-573.80;117.50
64.3597;-571.85;105.38
64.3793;-569.89;117.89
64.3989;-567.94;105.77
64.4184;-565.98;117.89
64.4380;-564.03;116.72
64.4575;-562.07;115.93
64.4771;-560.12;103.03
64.4966;-558.16;115.93
64.5162;-556.21;101.86
64.5357;-554.25;115.15
64.5553;-552.30;102.25
64.5748;-550.34;115.15
64.5944;-548.39;100.68
64.6139;-546.43;113.98
64.6335;-544.48;100.68
64.6531;-542.52;113.59
64.6726;-540.57;97.95
64.6922;-538.61;109.68
64.7117;-536.66;110.85
64.7313;-534.70;109.68
64.7508;-532.75;110.85
64.7704;-530.79;109.29
64.7899;-528.84;109.68
64.8095;-526.88;95.99
64.8290;-524.93;109.29
64.8486;-522.97;95.21
64.8682;-521.02;108.11
64.8877;-519.06;108.90
64.9073;-517.11;107.72
64.9268;-515.15;108.11
64.9464;-513.20;104.99
64.9659;-511.24;106.94
64.9855;-509.29;104.99
65.0050;-507.33;106.16
65.0246;-505.38;92.47
65.0441;-503.42;105.77
65.0637;-501.47;104.20
65.0832;-499.51;104.59
65.1028;-497.56;91.69
65.1224;-495.60;102.25
65.1419;-493.65;102.25
65.1615;-491.69;101.47
65.1810;-489.74;102.25
65.2006;-487.78;101.47
65.2201;-485.83;101.47
65.2397;-483.87;100.29
65.2592;-481.92;101.08
65.2788;-479.96;99.12
65.2983;-478.01;100.68
65.3179;-476.05;98.73
65.3375;-474.10;96.77
65.3570;-472.14;99.12
65.3766;-470.19;98.34
65.3961;-468.23;84.65
65.4157;-466.28;96.38
65.4352;-464.32;99.12
65.4548;-462.37;96.38
65.4743;-460.41;83.87
65.4939;-458.46;95.99
65.5134;-456.50;95.99
65.5330;-454.55;95.60
65.5525;-452.59;81.52
65.5721;-450.64;93.65
65.5917;-448.68;95.21
65.6112;-446.73;92.86
65.6308;-444.77;91.69
65.6503;-442.82;92.08
65.6699;-440.86;93.65
65.6894;-438.91;92.08
65.7090;-436.95;91.30
65.7285;-435.00;78.01
65.7481;-433.04;92.08
65.7676;-431.09;90.91
65.7872;-429.13;77.61
65.8068;-427.18;88.56
65.8263;-425.22;89.35
65.8459;-423.26;78.79
65.8654;-421.31;74.88
65.8850;-419.35;74.88
65.9045;-417.40;87.78
65.9241;-415.44;87.78
65.9436;-413.49;73.70
65.9632;-411.53;86.22
65.9827;-409.58;87.39
66.0023;-407.62;86.22
66.0218;-405.67;73.70
66.0414;-403.71;83.48
66.0610;-401.76;85.04
66.0805;-399.80;84.65
66.1001;-397.85;70.58
66.1196;-395.89;82.70
66.1392;-393.94;84.26
66.1587;-391.98;83.09
66.1783;-390.03;67.45
66.1978;-388.07;80.74
66.2174;-386.12;82.70
66.2369;-384.16;81.52
66.2565;-382.21;67.45
66.2761;-380.25;81.13
66.2956;-378.30;81.13
66.3152;-376.34;79.57
66.3347;-374.39;66.28
66.3543;-372.43;79.18
66.3738;-370.48;79.18
66.3934;-368.52;78.40
66.4129;-366.57;63.93
66.4325;-364.61;76.83
66.4520;-362.66;78.40
66.4716;-360.70;77.61
66.4911;-358.75;63.15
66.5107;-356.79;62.37
66.5303;-354.84;75.66
66.5498;-352.88;74.49
66.5694;-350.93;60.80
66.5889;-348.97;73.31
66.6085;-347.02;75.66
66.6280;-345.06;74.49
66.6476;-343.11;59.24
66.6671;-341.15;72.14
66.6867;-339.20;73.31
66.7062;-337.24;72.53
66.7258;-335.29;58.06
66.7453;-333.33;71.75
66.7649;-331.38;71.75
66.7845;-329.42;70.58
66.8040;-327.47;58.06
66.8236;-325.51;68.23
66.8431;-323.56;70.58
66.8627;-321.60;69.40
66.8822;-319.65;53.76
66.9018;-317.69;67.45
66.9213;-315.74;69.01
66.9409;-313.78;67.06
66.9604;-311.83;54.55
66.9800;-309.87;52.59
66.9996;-307.92;66.67
67.0191;-305.96;66.67
67.0387;-304.01;52.59
67.0582;-302.05;51.03
67.0778;-300.10;65.49
67.0973;-298.14;63.54
67.1169;-296.19;50.24
67.1364;-294.23;62.76
67.1560;-292.28;64.32
67.1755;-290.32;62.76
67.1951;-288.37;48.29
67.2146;-286.41;60.41
67.2342;-284.46;62.37
67.2538;-282.50;60.80
67.2733;-280.55;46.33
67.2929;-278.59;60.02
67.3124;-276.64;60.80
67.3320;-274.68;60.80
67.3515;-272.73;45.55
67.3711;-270.77;58.06
67.3906;-268.82;59.63
67.4102;-266.86;58.85
67.4297;-264.91;43.99
67.4493;-262.95;58.06
67.4689;-261.00;57.67
67.4884;-259.04;56.89
67.5080;-257.09;56.11
67.5275;-255.13;55.33
67.5471;-253.18;55.72
67.5666;-251.22;54.55
67.5862;-249.27;40.47
67.6057;-247.31;53.76
67.6253;-245.36;54.15
67.6448;-243.40;54.15
67.6644;-241.45;38.51
67.6839;-239.49;38.91
67.7035;-237.54;53.76
67.7231;-235.58;51.81
67.7426;-233.63;37.73
67.7622;-231.67;50.24
67.7817;-229.72;51.81
67.8013;-227.76;49.85
67.8208;-225.81;36.95
67.8404;-223.85;35.78
67.8599;-221.90;49.85
67.8795;-219.94;49.07
67.8990;-217.99;35.00
67.9186;-216.03;34.21
67.9382;-214.08;48.29
67.9577;-212.12;46.73
67.9773;-210.17;33.04
67.9968;-208.21;45.94
68.0164;-206.26;47.12
68.0359;-204.30;46.33
68.0555;-202.35;31.48
68.0750;-200.39;30.30
68.0946;-198.44;45.55
68.1141;-196.48;44.38
68.1337;-194.53;29.13
68.1532;-192.57;44.38
68.1728;-190.62;44.38
68.1924;-188.66;40.86
68.2119;-186.71;28.35
68.2315;-184.75;41.64
68.2510;-182.80;42.03
68.2706;-180.84;42.03
68.2901;-178.89;26.78
68.3097;-176.93;27.17
68.3292;-174.98;40.86
68.3488;-173.02;29.52
68.3683;-171.07;26.00
68.3879;-169.11;38.12
68.4075;-167.16;39.30
68.4270;-165.20;38.91
68.4466;-163.25;23.66
68.4661;-161.29;35.00
68.4857;-159.34;37.73
68.5052;-157.38;24.44
68.5248;-155.43;21.70
68.5443;-153.47;35.39
68.5639;-151.52;36.17
68.5834;-149.56;24.05
68.6030;-147.61;20.14
68.6225;-145.65;33.82
68.6421;-143.70;33.82
68.6617;-141.74;21.31
68.6812;-139.78;17.79
68.7008;-137.83;31.48
68.7203;-135.87;33.04
68.7399;-133.92;19.75
68.7594;-131.96;17.01
68.7790;-130.01;16.23
68.7985;-128.05;31.48
68.8181;-126.10;29.52
68.8376;-124.14;15.84
68.8572;-122.19;30.30
68.8768;-120.23;29.52
68.8963;-118.28;16.62
68.9159;-116.32;14.27
68.9354;-114.37;27.57
68.9550;-112.41;27.96
68.9745;-110.46;15.44
68.9941;-108.50;11.93
69.0136;-106.55;12.71
69.0332;-104.59;26.78
69.0527;-102.64;13.10
69.0723;-100.68;11.53
69.0918;-98.73;26.00
69.1114;-96.77;24.83
69.1310;-94.82;25.22
69.1505;-92.86;24.05
69.1701;-90.91;24.05
69.1896;-88.95;23.66
69.2092;-87.00;23.66
69.2287;-85.04;23.26
69.2483;-83.09;22.48
69.2678;-81.13;22.48
69.2874;-79.18;21.70
69.3069;-77.22;21.31
69.3265;-75.27;20.14
69.3460;-73.31;21.31
69.3656;-71.36;20.14
69.3852;-69.40;20.14
69.4047;-67.45;19.75
69.4243;-65.49;19.75
69.4438;-63.54;18.96
69.4634;-61.58;18.96
69.4829;-59.63;17.79
69.5025;-57.67;17.79
69.5220;-55.72;16.62
69.5416;-53.76;17.01
69.5611;-51.81;15.84
69.5807;-49.85;16.23
69.6003;-47.90;14.27
69.6198;-45.94;15.05
69.6394;-43.99;15.05
69.6589;-42.03;13.49
69.6785;-40.08;13.88
69.6980;-38.12;13.10
69.7176;-36.17;12.71
69.7371;-34.21;12.32
69.7567;-32.26;12.71
69.7762;-30.30;11.93
69.7958;-28.35;11.93
69.8153;-26.39;10.75
69.8349;-24.44;10.36
69.8545;-22.48;10.36
69.8740;-20.53;10.36
69.8936;-18.57;9.97
69.9131;-16.62;8.02
69.9327;-14.66;-6.06
69.9522;-12.71;-6.84
69.9718;-10.75;-6.84
69.9913;-8.80;8.02
70.0109;-6.84;6.45
70.0304;-4.89;-7.62
70.0500;-2.93;-8.80
70.0696;-0.98;-7.62
70.0891;0.98;6.06
70.1087;2.93;-10.36
70.1282;4.89;5.67
70.1478;6.84;-9.19
70.1673;8.80;-9.97
70.1869;10.75;4.89
70.2064;12.71;-11.93
70.2260;14.66;-12.32
70.2455;16.62;-12.32
70.2651;18.57;-13.88
70.2846;20.53;-13.49
70.3042;22.48;-13.88
70.3238;24.44;-13.49
70.3433;26.39;-15.05
70.3629;28.35;-15.44
70.3824;30.30;-15.84
70.4020;32.26;-15.84
70.4215;34.21;-16.23
70.4411;36.17;-16.23
70.4606;38.12;-17.79
70.4802;40.08;-17.40
70.4997;42.03;-19.35
70.5193;43.99;-17.79
70.5389;45.94;-18.96
70.5584;47.90;-18.18
70.5780;49.85;-19.75
70.5975;51.81;-20.14
70.6171;53.76;-20.14
70.6366;55.72;-18.96
70.6562;57.67;-21.31
70.6757;59.63;-20.92
70.6953;61.58;-22.48
70.7148;63.54;-21.31
70.7344;65.49;-22.48
70.7539;67.45;-22.48
70.7735;69.40;-23.26
70.7931;71.36;-23.26
70.8126;73.31;-23.26
70.8322;75.27;-24.05
70.8517;77.22;-24.44
70.8713;79.18;-24.44
70.8908;81.13;-25.22
70.9104;83.09;-24.44
70.9299;85.04;-26.39
70.9495;87.00;-26.39
70.9690;88.95;-26.00
70.9886;90.91;-27.96
71.0082;92.86;-27.17
71.0277;94.82;-28.35
71.0473;96.77;-28.35
71.0668;98.73;-28.74
71.0864;100.68;-14.27
71.1059;102.64;-29.13
71.1255;104.59;-29.13
71.1450;106.55;-14.66
71.1646;108.50;-15.84
71.1841;110.46;-31.09
71.2037;112.41;-17.40
71.2232;114.37;-16.62
71.2428;116.32;-29.91
71.2624;118.28;-33.04
71.2819;120.23;-32.26
71.3015;122.19;-18.57
71.3210;124.14;-31.09
71.3406;126.10;-33.82
71.3601;128.05;-35.00
71.3797;130.01;-20.53
71.3992;131.96;-35.00
71.4188;133.92;-36.17
71.4383;135.87;-35.00
71.4579;137.83;-20.92
71.4775;139.78;-35.00
71.4970;141.74;-36.95
71.5166;143.70;-37.34
71.5361;145.65;-23.26
71.5557;147.61;-38.51
71.5752;149.56;-38.91
71.5948;151.52;-37.73
71.6143;153.47;-24.44
71.6339;155.43;-37.34
71.6534;157.38;-40.47
71.6730;159.34;-40.08
71.6925;161.29;-26.39
71.7121;163.25;-40.47
71.7317;165.20;-42.03
71.7512;167.16;-27.17
71.7708;169.11;-27.17
71.7903;171.07;-28.35
71.8099;173.02;-43.60
71.8294;174.98;-42.82
71.8490;176.93;-29.13
71.8685;178.89;-42.82
71.8881;180.84;-45.16
71.9076;182.80;-43.60
71.9272;184.75;-30.69
71.9468;186.71;-45.55
71.9663;188.66;-47.12
71.9859;190.62;-45.94
72.0054;192.57;-32.26
72.0250;194.53;-33.04
72.0445;196.48;-48.29
72.0641;198.44;-47.51
72.0836;200.39;-34.60
72.1032;202.35;-49.46
72.1227;204.30;-49.46
72.1423;206.26;-35.78
72.1618;208.21;-35.00
72.1814;210.17;-51.03
72.2010;212.12;-51.42
72.2205;214.08;-51.42
72.2401;216.03;-37.73
72.2596;217.99;-50.24
72.2792;219.94;-52.98
72.2987;221.90;-52.59
72.3183;223.85;-38.91
72.3378;225.81;-51.81
72.3574;227.76;-54.15
72.3769;229.72;-53.76
72.3965;231.67;-40.08
72.4160;233.63;-54.15
72.4356;235.58;-56.50
72.4552;237.54;-42.42
72.4747;239.49;-41.64
72.4943;241.45;-55.72
72.5138;243.40;-56.89
72.5334;245.36;-56.89
72.5529;247.31;-43.99
72.5725;249.27;-57.67
72.5920;251.22;-59.24
72.6116;253.18;-45.55
72.6311;255.13;-44.77
72.6507;257.09;-58.46
72.6703;259.04;-61.19
72.6898;261.00;-60.80
72.7094;262.95;-46.73
72.7289;264.91;-60.41
72.7485;266.86;-63.15
72.7680;268.82;-62.37
72.7876;270.77;-48.29
72.8071;272.73;-63.15
72.8267;274.68;-63.54
72.8462;276.64;-62.76
72.8658;278.59;-49.46
72.8853;280.55;-63.93
72.9049;282.50;-64.71
72.9245;284.46;-64.71
72.9440;286.41;-51.42
72.9636;288.37;-64.71
72.9831;290.32;-67.45
73.0027;292.28;-65.49
73.0222;294.23;-52.59
73.0418;296.19;-66.28
73.0613;298.14;-68.62
73.0809;300.10;-68.62
73.1004;302.05;-54.94
73.1200;304.01;-54.94
73.1396;305.96;-69.40
73.1591;307.92;-55.33
73.1787;309.87;-56.50
73.1982;311.83;-69.79
73.2178;313.78;-71.36
73.2373;315.74;-71.36
73.2569;317.69;-59.24
73.2764;319.65;-70.97
73.2960;321.60;-73.31
73.3155;323.56;-71.75
73.3351;325.51;-66.67
73.3546;327.47;-74.49
73.3742;329.42;-74.88
73.3938;331.38;-60.41
73.4133;333.33;-75.27
73.4329;335.29;-74.88
73.4524;337.24;-75.66
73.4720;339.20;-75.66
73.4915;341.15;-75.27
73.5111;343.11;-77.22
73.5306;345.06;-77.22
73.5502;347.02;-78.01
73.5697;348.97;-63.54
73.5893;350.93;-78.01
73.6089;352.88;-79.18
73.6284;354.84;-78.79
73.6480;356.79;-64.32
73.6675;358.75;-79.57
73.6871;360.70;-81.13
73.7066;362.66;-66.67
73.7262;364.61;-66.67
73.7457;366.57;-81.13
73.7653;368.52;-82.31
73.7848;370.48;-81.92
73.8044;372.43;-69.01
73.8239;374.39;-82.70
73.8435;376.34;-84.26
73.8631;378.30;-83.09
73.8826;380.25;-69.79
73.9022;382.21;-85.04
73.9217;384.16;-85.04
73.9413;386.12;-71.75
73.9608;388.07;-72.14
73.9804;390.03;-83.87
73.9999;391.98;-87.00
74.0195;393.94;-86.61
74.0390;395.89;-73.31
74.0586;397.85;-87.39
74.0782;399.80;-88.56
74.0977;401.76;-87.78
74.1173;403.71;-86.61
74.1368;405.67;-88.56
74.1564;407.62;-88.56
74.1759;409.58;-88.95
74.1955;411.53;-88.17
74.2150;413.49;-90.13
74.2346;415.44;-91.30
74.2541;417.40;-78.01
74.2737;419.35;-89.74
74.2932;421.31;-92.86
74.3128;423.26;-92.86
74.3324;425.22;-79.18
74.3519;427.17;-91.69
74.3715;429.13;-94.04
74.3910;431.09;-94.43
74.4106;433.04;-93.65
74.4301;435.00;-81.13
74.4497;436.95;-94.82
74.4692;438.91;-95.21
74.4888;440.86;-95.60
74.5083;442.82;-95.21
74.5279;444.77;-96.77
74.5475;446.73;-97.56
74.5670;448.68;-97.56
74.5866;450.64;-83.48
74.6061;452.59;-98.73
74.6257;454.55;-98.73
74.6452;456.50;-98.34
74.6648;458.46;-85.43
74.6843;460.41;-99.90
74.7039;462.37;-100.68
74.7234;464.32;-86.61
74.7430;466.28;-100.68
74.7625;468.23;-100.68
74.7821;470.19;-102.64
74.8017;472.14;-88.56
74.8212;474.10;-88.56
74.8408;476.05;-101.47
74.8603;478.01;-103.81
74.8799;479.96;-103.81
74.8994;481.92;-90.52
74.9190;483.87;-90.52
74.9385;485.83;-104.99
74.9581;487.78;-104.59
74.9776;489.74;-105.77
74.9972;491.69;-92.47
75.0167;493.65;-92.47
75.0363;495.60;-105.77
75.0559;497.56;-106.16
75.0754;499.51;-107.72
75.0950;501.47;-107.33
75.1145;503.42;-108.11
75.1341;505.38;-94.82
75.1536;507.33;-94.82
75.1732;509.29;-109.29
75.1927;511.24;-96.38
75.2123;513.20;-96.77
75.2318;515.15;-110.85
75.2514;517.11;-97.56
75.2710;519.06;-97.95
75.2905;521.02;-112.41
75.3101;522.97;-112.02
75.3296;524.93;-112.81
75.3492;526.88;-112.41
75.3687;528.84;-113.20
75.3883;530.79;-100.29
75.4078;532.75;-113.20
75.4274;534.70;-114.37
75.4469;536.66;-115.15
75.4665;538.61;-115.15
75.4860;540.57;-115.93
75.5056;542.52;-116.32
75.5252;544.48;-116.72
75.5447;546.43;-116.32
75.5643;548.39;-117.50
75.5838;550.34;-103.81
75.6034;552.30;-117.11
75.6229;554.25;-117.50
75.6425;556.21;-119.45
75.6620;558.16;-118.67
75.6816;560.12;-120.23
75.7011;562.07;-120.23
75.7207;564.03;-119.06
75.7403;565.98;-120.23
75.7598;567.94;-121.02
75.7794;569.89;-108.50
75.7989;571.85;-121.02
75.8185;573.80;-121.80
75.8380;575.76;-121.80
75.8576;577.71;-122.58
75.8771;579.67;-123.36
75.8967;581.62;-123.36
75.9162;583.58;-124.93
75.9358;585.53;-123.75
75.9553;587.49;-125.32
75.9749;589.44;-124.93
75.9945;591.40;-125.32
76.0140;593.35;-125.71
76.0336;595.31;-126.88
76.0531;597.26;-126.10
76.0727;599.22;-128.05
76.0922;601.17;-126.88
76.1118;603.13;-128.45
76.1313;605.08;-128.05
76.1509;607.04;-128.05
76.1704;608.99;-129.23
76.1900;610.95;-128.84
76.2096;612.90;-129.62
76.2291;614.86;-131.18
76.2487;616.81;-130.01
76.2682;618.77;-131.18
76.2878;620.72;-130.79
76.3073;622.68;-132.36
76.3269;624.63;-131.57
76.3464;626.59;-133.14
76.3660;628.54;-133.14
76.3855;630.50;-133.92
76.4051;632.45;-120.63
76.4246;634.41;-134.70
76.4442;636.36;-121.02
76.4638;638.32;-135.09
76.4833;640.27;-135.09
76.5029;642.23;-135.87
76.5224;644.18;-135.48
76.5420;646.14;-137.05
76.5615;648.09;-137.05
76.5811;650.05;-137.83
76.6006;652.00;-138.22
76.6202;653.96;-137.44
76.6397;655.91;-125.32
76.6593;657.87;-139.00
76.6789;659.82;-138.61
76.6984;661.78;-140.18
76.7180;663.73;-139.39
76.7375;665.69;-141.35
76.7571;667.64;-139.78
76.7766;669.60;-141.74
76.7962;671.55;-140.96
76.8157;673.51;-142.13
76.8353;675.46;-129.23
76.8548;677.42;-142.91
76.8744;679.37;-142.52
76.8939;681.33;-144.09
76.9135;683.28;-143.30
76.9331;685.24;-144.48
76.9526;687.19;-143.70
76.9722;689.15;-145.26
76.9917;691.10;-145.65
77.0113;693.06;-145.65
77.0308;695.01;-147.61
77.0504;696.97;-146.82
77.0699;698.92;-146.82
77.0895;700.88;-147.21
77.1090;702.83;-147.61
77.1286;704.79;-148.39
77.1482;706.74;-148.00
77.1677;708.70;-149.56
77.1873;710.65;-148.39
77.2068;712.61;-149.95
77.2264;714.57;-136.66
77.2459;716.52;-151.12
77.2655;718.48;-137.44
77.2850;720.43;-151.12
77.3046;722.39;-151.12
77.3241;724.34;-152.30
77.3437;726.30;-151.91
77.3632;728.25;-153.47
77.3828;730.21;-152.69
77.4024;732.16;-153.86
77.4219;734.12;-140.57
77.4415;736.07;-154.64
77.4610;738.03;-154.25
77.4806;739.98;-154.64
77.5001;741.94;-155.43
77.5197;743.89;-156.21
77.5392;745.85;-155.82
77.5588;747.80;-157.38
77.5783;749.76;-156.60
77.5979;751.71;-157.77
77.6175;753.67;-144.48
77.6370;755.62;-158.55
77.6566;757.58;-145.65
77.6761;759.53;-159.34
77.6957;761.49;-146.04
77.7152;763.44;-160.51
77.7348;765.40;-159.73
77.7543;767.35;-160.90
77.7739;769.31;-147.61
77.7934;771.26;-161.68
77.8130;773.22;-161.68
77.8325;775.17;-162.46
77.8521;777.13;-149.17
77.8717;779.08;-164.03
77.8912;781.04;-149.95
77.9108;782.99;-163.64
77.9303;784.95;-163.64
77.9499;786.90;-164.42
77.9694;788.86;-164.81
77.9890;790.81;-165.20
78.0085;792.77;-165.59
78.0281;794.72;-166.37
78.0476;796.68;-166.37
78.0672;798.63;-166.76
78.0867;800.59;-166.76
78.1063;802.54;-167.55
78.1259;804.50;-168.33
78.1454;806.45;-168.33
78.1650;808.41;-168.33
78.1845;810.36;-169.89
78.2041;812.32;-168.72
78.2236;814.27;-170.28
78.2432;816.23;-157.77
78.2627;818.18;-171.07
78.2823;820.14;-160.90
78.3018;822.09;-171.07
78.3214;824.05;-171.46
78.3410;826.00;-172.24
78.3605;827.96;-172.24
78.3801;829.91;-173.80
78.3996;831.87;-173.02
78.4192;833.82;-174.19
78.4387;835.78;-173.80
78.4583;837.73;-174.98
78.4778;839.69;-174.58
78.4974;841.64;-175.76
78.5169;843.60;-174.58
78.5365;845.55;-176.54
78.5560;847.51;-176.15
78.5756;849.46;-176.93
78.5952;851.42;-176.93
78.6147;853.37;-178.10
78.6343;855.33;-176.54
78.6538;857.28;-178.49
78.6734;859.24;-178.49
78.6929;861.19;-178.89
78.7125;863.15;-178.89
78.7320;865.10;-179.67
78.7516;867.06;-179.67
78.7711;869.01;-181.23
78.7907;870.97;-181.23
78.8103;872.92;-181.62
78.8298;874.88;-182.01
78.8494;876.83;-182.40
78.8689;878.79;-182.40
78.8885;880.74;-183.58
78.9080;882.70;-183.58
78.9276;884.65;-183.97
78.9471;886.61;-184.36
78.9667;888.56;-184.75
78.9862;890.52;-185.14
79.0058;892.47;-185.14
79.0253;894.43;-185.53
79.0449;896.38;-186.71
79.0645;898.34;-186.31
79.0840;900.29;-186.71
79.1036;902.25;-187.10
79.1231;904.20;-187.49
79.1427;906.16;-187.88
79.1622;908.11;-189.05
79.1818;910.07;-188.66
79.2013;912.02;-189.05
79.2209;913.98;-189.44
79.2404;915.93;-189.83
79.2600;917.89;-191.40
79.2796;919.84;-191.01
79.2991;921.80;-191.40
79.3187;923.75;-191.79
79.3382;925.71;-191.79
79.3578;927.66;-192.57
79.3773;929.62;-192.57
79.3969;931.57;-192.96
79.4164;933.53;-193.35
79.4360;935.48;-194.13
79.4555;937.44;-194.13
79.4751;939.39;-194.92
79.4946;941.35;-194.92
79.5142;943.30;-195.70
79.5338;945.26;-196.09
79.5533;947.21;-196.48
79.5729;949.17;-196.48
79.5924;951.12;-196.48
79.6120;953.08;-197.26
79.6315;955.03;-198.04
79.6511;956.99;-198.04
79.6706;958.94;-198.83
79.6902;960.90;-199.22
79.7097;962.85;-199.61
79.7293;964.81;-200.00
79.7489;966.76;-200.00
79.7684;968.72;-200.00
79.7880;970.67;-200.00
79.8075;972.63;-200.00
79.8271;974.58;-200.00
79.8466;976.54;-200.00
79.8662;978.49;-200.00
79.8857;980.45;-200.00
79.9053;982.40;-200.00
79.9248;984.36;-200.00
79.9444;986.31;-200.00
79.9639;988.27;-200.00
79.9835;990.22;-200.00
80.0031;992.18;-200.00
80.0226;994.13;-200.00
80.0422;996.09;-200.00
80.0617;998.04;-200.00
80.0813;1000.00;-200.00

Acquisition complétée
