=~=~=~=~=~=~=~=~=~=~=~= PuTTY log 2025.03.26 19:17:55 =~=~=~=~=~=~=~=~=~=~=~=
9785Choisissez la methode :
1 - Chronoamperometrie
2 - Voltammetrie cyclique
Entree invalide. Veuillez choisir 1 ou 2.
Methode selectionnee : Voltammetrie cyclique
Entrez E1 (en Volts) :
Entrez E2 (en Volts) :
Entrez la vitesse de balayage (en V/s) :
Entrez le nombre de cycles :
Parametres enregistres.
E1 = -1.00 V, E2 = 1.00 V, Vitesse = 0.10 V/s
Cycles = 2.00
Entrez le facteur d'affichage (valeur par défaut = 1, valeur utilisée pour les mesures = 4) :
Facteur d'affichage choisi : 1
Entrez 'ok' pour commencer l'expérience.
Debut
Temps (s) tension_theo (mV) tension_exp (mV)
0.0196;1000.00;1000.00
0.0391;998.04;1000.00
0.0587;996.09;998.04
0.0782;994.13;998.04
0.0978;992.18;992.18
0.1173;990.22;992.18
0.1369;988.27;992.18
0.1564;986.31;988.27
0.1760;984.36;988.27
0.1955;982.40;984.36
0.2151;980.45;982.40
0.2346;978.49;982.40
0.2542;976.54;980.45
0.2737;974.58;976.54
0.2933;972.63;976.54
0.3128;970.67;976.54
0.3324;968.72;970.67
0.3519;966.76;970.67
0.3715;964.81;966.76
0.3910;962.85;966.76
0.4106;960.90;964.81
0.4301;958.94;960.90
0.4497;956.99;960.90
0.4692;955.03;958.94
0.4888;953.08;956.99
0.5083;951.12;953.08
0.5279;949.17;953.08
0.5474;947.21;951.12
0.5670;945.26;947.21
0.5865;943.30;947.21
0.6061;941.35;943.30
0.6256;939.39;943.30
0.6452;937.44;939.39
0.6647;935.48;939.39
0.6843;933.53;937.44
0.7038;931.57;935.48
0.7234;929.62;935.48
0.7429;927.66;929.62
0.7625;925.71;929.62
0.7820;923.75;929.62
0.8016;921.80;927.66
0.8211;919.84;923.75
0.8407;917.89;921.80
0.8602;915.93;919.84
0.8798;913.98;917.89
0.8993;912.02;915.93
0.9189;910.07;910.07
0.9384;908.11;912.02
0.9580;906.16;908.11
0.9775;904.20;908.11
0.9971;902.25;906.16
1.0166;900.29;902.25
1.0362;898.34;902.25
1.0557;896.38;898.34
1.0753;894.43;898.34
1.0948;892.47;896.38
1.1144;890.52;894.43
1.1339;888.56;894.43
1.1535;886.61;890.52
1.1730;884.65;888.56
1.1926;882.70;886.61
1.2121;880.74;884.65
1.2317;878.79;882.70
1.2512;876.83;882.70
1.2708;874.88;878.79
1.2903;872.92;876.83
1.3099;870.97;874.88
1.3294;869.01;870.97
1.3490;867.06;870.97
1.3685;865.10;869.01
1.3881;863.15;869.01
1.4076;861.19;865.10
1.4272;859.24;863.15
1.4467;857.28;863.15
1.4663;855.33;859.24
1.4858;853.37;859.24
1.5054;851.42;857.28
1.5249;849.46;857.28
1.5445;847.51;851.42
1.5640;845.55;851.42
1.5836;843.60;847.51
1.6031;841.64;845.55
1.6227;839.69;845.55
1.6422;837.73;843.60
1.6618;835.78;841.64
1.6813;833.82;835.78
1.7009;831.87;837.73
1.7204;829.91;833.82
1.7400;827.96;833.82
1.7595;826.00;829.91
1.7791;824.05;827.96
1.7986;822.09;827.96
1.8182;820.14;826.00
1.8377;818.18;824.05
1.8573;816.23;822.09
1.8768;814.27;820.14
1.8964;812.32;816.23
1.9159;810.36;816.23
1.9355;808.41;814.27
1.9550;806.45;810.36
1.9746;804.50;810.36
1.9941;802.54;810.36
2.0137;800.59;806.45
2.0332;798.63;804.50
2.0528;796.68;800.59
2.0723;794.72;800.59
2.0919;792.77;796.68
2.1114;790.81;796.68
2.1310;788.86;792.77
2.1505;786.90;792.77
2.1701;784.95;788.86
2.1896;782.99;790.81
2.2092;781.04;784.95
2.2287;779.08;784.95
2.2483;777.13;782.99
2.2678;775.17;781.04
2.2874;773.22;779.08
2.3069;771.26;777.13
2.3265;769.31;775.17
2.3460;767.35;773.22
2.3656;765.40;773.22
2.3851;763.44;771.26
2.4047;761.49;767.35
2.4242;759.53;767.35
2.4438;757.58;765.40
2.4633;755.62;763.44
2.4829;753.67;759.53
2.5024;751.71;755.62
2.5220;749.76;757.58
2.5415;747.80;753.67
2.5611;745.85;755.62
2.5806;743.89;749.76
2.6002;741.94;749.76
2.6197;739.98;749.76
2.6393;738.03;745.85
2.6588;736.07;739.98
2.6784;734.12;739.98
2.6979;732.16;739.98
2.7175;730.21;738.03
2.7370;728.25;734.12
2.7566;726.30;734.12
2.7761;724.34;730.21
2.7957;722.39;728.25
2.8152;720.43;728.25
2.8348;718.48;724.34
2.8543;716.52;724.34
2.8739;714.57;720.43
2.8934;712.61;720.43
2.9130;710.65;718.48
2.9325;708.70;716.52
2.9521;706.74;712.61
2.9716;704.79;710.65
2.9912;702.83;710.65
3.0108;700.88;706.74
3.0303;698.92;706.74
3.0499;696.97;704.79
3.0694;695.01;700.88
3.0890;693.06;657.87
3.1085;691.10;698.92
3.1281;689.15;696.97
3.1476;687.19;695.01
3.1672;685.24;695.01
3.1867;683.28;689.15
3.2063;681.33;689.15
3.2258;679.37;685.24
3.2454;677.42;685.24
3.2649;675.46;683.28
3.2845;673.51;677.42
3.3040;671.55;679.37
3.3236;669.60;679.37
3.3431;667.64;675.46
3.3627;665.69;673.51
3.3822;663.73;673.51
3.4018;661.78;669.60
3.4213;659.82;667.64
3.4409;657.87;665.69
3.4604;655.91;665.69
3.4800;653.96;661.78
3.4995;652.00;616.81
3.5191;650.05;659.82
3.5386;648.09;653.96
3.5582;646.14;653.96
3.5777;644.18;653.96
3.5973;642.23;650.05
3.6168;640.27;650.05
3.6364;638.32;650.05
3.6559;636.36;644.18
3.6755;634.41;644.18
3.6950;632.45;640.27
3.7146;630.50;640.27
3.7341;628.54;636.36
3.7537;626.59;636.36
3.7732;624.63;634.41
3.7928;622.68;634.41
3.8123;620.72;628.54
3.8319;618.77;624.63
3.8514;616.81;626.59
3.8710;614.86;622.68
3.8905;612.90;579.67
3.9101;610.95;618.77
3.9296;608.99;616.81
3.9492;607.04;616.81
3.9687;605.08;614.86
3.9883;603.13;610.95
4.0078;601.17;610.95
4.0274;599.22;607.04
4.0469;597.26;607.04
4.0665;595.31;605.08
4.0860;593.35;558.16
4.1056;591.40;599.22
4.1251;589.44;597.26
4.1447;587.49;599.22
4.1642;585.53;597.26
4.1838;583.58;593.35
4.2033;581.62;591.40
4.2229;579.67;591.40
4.2424;577.71;585.53
4.2620;575.76;585.53
4.2815;573.80;585.53
4.3011;571.85;581.62
4.3206;569.89;581.62
4.3402;567.94;581.62
4.3597;565.98;581.62
4.3793;564.03;575.76
4.3988;562.07;573.80
4.4184;560.12;569.89
4.4379;558.16;569.89
4.4575;556.21;565.98
4.4770;554.25;519.06
4.4966;552.30;519.06
4.5161;550.34;560.12
4.5357;548.39;558.16
4.5552;546.43;560.12
4.5748;544.48;554.25
4.5943;542.52;552.30
4.6139;540.57;552.30
4.6334;538.61;548.39
4.6530;536.66;503.42
4.6725;534.70;499.51
4.6921;532.75;542.52
4.7116;530.79;542.52
4.7312;528.84;538.61
4.7507;526.88;493.65
4.7703;524.93;487.78
4.7898;522.97;534.70
4.8094;521.02;487.78
4.8289;519.06;483.87
4.8485;517.11;528.84
4.8680;515.15;481.92
4.8876;513.20;479.96
4.9071;511.24;476.05
4.9267;509.29;476.05
4.9462;507.33;517.11
4.9658;505.38;474.10
4.9853;503.42;513.20
5.0049;501.47;468.23
5.0244;499.51;466.28
5.0440;497.56;464.32
5.0635;495.60;462.37
5.0831;493.65;460.41
5.1026;491.69;501.47
5.1222;489.74;503.42
5.1417;487.78;497.56
5.1613;485.83;497.56
5.1808;483.87;450.64
5.2004;481.92;493.65
5.2199;479.96;491.69
5.2395;478.01;446.73
5.2590;476.05;442.82
5.2786;474.10;487.78
5.2981;472.14;483.87
5.3177;470.19;481.92
5.3372;468.23;479.96
5.3568;466.28;479.96
5.3763;464.32;476.05
5.3959;462.37;474.10
5.4154;460.41;474.10
5.4350;458.46;427.17
5.4545;456.50;425.22
5.4741;454.55;468.23
5.4936;452.59;464.32
5.5132;450.64;464.32
5.5327;448.68;462.37
5.5523;446.73;458.46
5.5718;444.77;458.46
5.5914;442.82;454.55
5.6109;440.86;411.53
5.6305;438.91;452.59
5.6500;436.95;409.58
5.6696;435.00;448.68
5.6891;433.04;401.76
5.7087;431.09;399.80
5.7282;429.13;440.86
5.7478;427.17;436.95
5.7673;425.22;436.95
5.7869;423.26;435.00
5.8064;421.31;391.98
5.8260;419.35;433.04
5.8455;417.40;388.07
5.8651;415.44;429.13
5.8846;413.49;427.17
5.9042;411.53;382.21
5.9237;409.58;425.22
5.9433;407.62;421.31
5.9628;405.67;419.35
5.9824;403.71;417.40
6.0020;401.76;374.39
6.0215;399.80;370.48
6.0411;397.85;411.53
6.0606;395.89;370.48
6.0802;393.94;362.66
6.0997;391.98;362.66
6.1193;390.03;403.71
6.1388;388.07;401.76
6.1584;386.12;397.85
6.1779;384.16;397.85
6.1975;382.21;397.85
6.2170;380.25;350.93
6.2366;378.30;391.98
6.2561;376.34;388.07
6.2757;374.39;390.03
6.2952;372.43;386.12
6.3148;370.48;382.21
6.3343;368.52;380.25
6.3539;366.57;380.25
6.3734;364.61;376.34
6.3930;362.66;333.33
6.4125;360.70;331.38
6.4321;358.75;372.43
6.4516;356.79;370.48
6.4712;354.84;368.52
6.4907;352.88;327.47
6.5103;350.93;366.57
6.5298;348.97;319.65
6.5494;347.02;319.65
6.5689;345.06;315.74
6.5885;343.11;354.84
6.6080;341.15;311.83
6.6276;339.20;309.87
6.6471;337.24;352.88
6.6667;335.29;350.93
6.6862;333.33;348.97
6.7058;331.38;304.01
6.7253;329.42;347.02
6.7449;327.47;343.11
6.7644;325.51;339.20
6.7840;323.56;296.19
6.8035;321.60;296.19
6.8231;319.65;335.29
6.8426;317.69;335.29
6.8622;315.74;333.33
6.8817;313.78;327.47
6.9013;311.83;282.50
6.9208;309.87;282.50
6.9404;307.92;278.59
6.9599;305.96;278.59
6.9795;304.01;274.68
6.9990;302.05;278.59
7.0186;300.10;274.68
7.0381;298.14;270.77
7.0577;296.19;270.77
7.0772;294.23;264.91
7.0968;292.28;266.86
7.1163;290.32;261.00
7.1359;288.37;304.01
7.1554;286.41;257.09
7.1750;284.46;255.13
7.1945;282.50;255.13
7.2141;280.55;251.22
7.2336;278.59;249.27
7.2532;276.64;247.31
7.2727;274.68;245.36
7.2923;272.73;288.37
7.3118;270.77;243.40
7.3314;268.82;241.45
7.3509;266.86;239.49
7.3705;264.91;237.54
7.3900;262.95;235.58
7.4096;261.00;237.54
7.4291;259.04;229.72
7.4487;257.09;229.72
7.4682;255.13;225.81
7.4878;253.18;227.76
7.5073;251.22;225.81
7.5269;249.27;221.90
7.5464;247.31;216.03
7.5660;245.36;219.94
7.5855;243.40;217.99
7.6051;241.45;212.12
7.6246;239.49;214.08
7.6442;237.54;210.17
7.6637;235.58;210.17
7.6833;233.63;204.30
7.7028;231.67;202.35
7.7224;229.72;202.35
7.7419;227.76;200.39
7.7615;225.81;198.44
7.7810;223.85;196.48
7.8006;221.90;198.44
7.8201;219.94;194.53
7.8397;217.99;190.62
7.8592;216.03;188.66
7.8788;214.08;188.66
7.8983;212.12;184.75
7.9179;210.17;182.80
7.9374;208.21;182.80
7.9570;206.26;178.89
7.9765;204.30;176.93
7.9961;202.35;173.02
8.0156;200.39;171.07
8.0352;198.44;173.02
8.0547;196.48;171.07
8.0743;194.53;165.20
8.0938;192.57;169.11
8.1134;190.62;161.29
8.1329;188.66;161.29
8.1525;186.71;159.34
8.1720;184.75;159.34
8.1916;182.80;159.34
8.2111;180.84;153.47
8.2307;178.89;153.47
8.2502;176.93;153.47
8.2698;174.98;149.56
8.2893;173.02;147.61
8.3089;171.07;149.56
8.3284;169.11;186.71
8.3480;167.16;143.70
8.3675;165.20;139.78
8.3871;163.25;182.80
8.4066;161.29;137.83
8.4262;159.34;133.92
8.4457;157.38;135.87
8.4653;155.43;130.01
8.4848;153.47;128.05
8.5044;151.52;128.05
8.5239;149.56;128.05
8.5435;147.61;163.25
8.5630;145.65;122.19
8.5826;143.70;116.32
8.6021;141.74;118.28
8.6217;139.78;116.32
8.6412;137.83;157.38
8.6608;135.87;110.46
8.6803;133.92;110.46
8.6999;131.96;106.55
8.7194;130.01;106.55
8.7390;128.05;108.50
8.7585;126.10;104.59
8.7781;124.14;98.73
8.7976;122.19;147.61
8.8172;120.23;98.73
8.8367;118.28;141.74
8.8563;116.32;141.74
8.8758;114.37;135.87
8.8954;112.41;133.92
8.9149;110.46;131.96
8.9345;108.50;130.01
8.9540;106.55;128.05
8.9736;104.59;128.05
8.9931;102.64;126.10
9.0127;100.68;122.19
9.0322;98.73;77.22
9.0518;96.77;114.37
9.0714;94.82;71.36
9.0909;92.86;114.37
9.1105;90.91;112.41
9.1300;88.95;67.45
9.1496;87.00;108.50
9.1691;85.04;102.64
9.1887;83.09;57.67
9.2082;81.13;104.59
9.2278;79.18;98.73
9.2473;77.22;57.67
9.2669;75.27;96.77
9.2864;73.31;51.81
9.3060;71.36;90.91
9.3255;69.40;49.85
9.3451;67.45;90.91
9.3646;65.49;43.99
9.3842;63.54;85.04
9.4037;61.58;42.03
9.4233;59.63;83.09
9.4428;57.67;40.08
9.4624;55.72;79.18
9.4819;53.76;34.21
9.5015;51.81;71.36
9.5210;49.85;75.27
9.5406;47.90;20.53
9.5601;45.94;73.31
9.5797;43.99;65.49
9.5992;42.03;71.36
9.6188;40.08;61.58
9.6383;38.12;20.53
9.6579;36.17;57.67
9.6774;34.21;16.62
9.6970;32.26;53.76
9.7165;30.30;12.71
9.7361;28.35;53.76
9.7556;26.39;6.84
9.7752;24.44;4.89
9.7947;22.48;42.03
9.8143;20.53;2.93
9.8338;18.57;-2.93
9.8534;16.62;42.03
9.8729;14.66;-10.75
9.8925;12.71;-8.80
9.9120;10.75;32.26
9.9316;8.80;-12.71
9.9511;6.84;-12.71
9.9707;4.89;-20.53
9.9902;2.93;30.30
10.0098;0.98;26.39
10.0293;-0.98;-22.48
10.0489;-2.93;-26.39
10.0684;-4.89;-26.39
10.0880;-6.84;-26.39
10.1075;-8.80;-28.35
10.1271;-10.75;-32.26
10.1466;-12.71;-36.17
10.1662;-14.66;6.84
10.1857;-16.62;-38.12
10.2053;-18.57;2.93
10.2248;-20.53;-43.99
10.2444;-22.48;0.98
10.2639;-24.44;-45.94
10.2835;-26.39;-4.89
10.3030;-28.35;-49.85
10.3226;-30.30;-4.89
10.3421;-32.26;-49.85
10.3617;-34.21;-51.81
10.3812;-36.17;-59.63
10.4008;-38.12;-59.63
10.4203;-40.08;-16.62
10.4399;-42.03;-57.67
10.4594;-43.99;-63.54
10.4790;-45.94;-24.44
10.4985;-47.90;-24.44
10.5181;-49.85;-67.45
10.5376;-51.81;-73.31
10.5572;-53.76;-32.26
10.5767;-55.72;-28.35
10.5963;-57.67;-75.27
10.6158;-59.63;-77.22
10.6354;-61.58;-38.12
10.6549;-63.54;-36.17
10.6745;-65.49;-83.09
10.6940;-67.45;-90.91
10.7136;-69.40;-45.94
10.7331;-71.36;-42.03
10.7527;-73.31;-90.91
10.7722;-75.27;-49.85
10.7918;-77.22;-51.81
10.8113;-79.18;-51.81
10.8309;-81.13;-98.73
10.8504;-83.09;-100.68
10.8700;-85.04;-59.63
10.8895;-87.00;-57.67
10.9091;-88.95;-108.50
10.9286;-90.91;-61.58
10.9482;-92.86;-106.55
10.9677;-94.82;-71.36
10.9873;-96.77;-67.45
11.0068;-98.73;-67.45
11.0264;-100.68;-69.40
11.0459;-102.64;-124.14
11.0655;-104.59;-124.14
11.0850;-106.55;-75.27
11.1046;-108.50;-131.96
11.1241;-110.46;-130.01
11.1437;-112.41;-126.10
11.1632;-114.37;-85.04
11.1828;-116.32;-135.87
11.2023;-118.28;-87.00
11.2219;-120.23;-94.82
11.2414;-122.19;-137.83
11.2610;-124.14;-96.77
11.2805;-126.10;-143.70
11.3001;-128.05;-100.68
11.3196;-130.01;-100.68
11.3392;-131.96;-108.50
11.3587;-133.92;-149.56
11.3783;-135.87;-149.56
11.3978;-137.83;-110.46
11.4174;-139.78;-116.32
11.4369;-141.74;-157.38
11.4565;-143.70;-159.34
11.4760;-145.65;-118.28
11.4956;-147.61;-122.19
11.5151;-149.56;-165.20
11.5347;-151.52;-165.20
11.5542;-153.47;-126.10
11.5738;-155.43;-130.01
11.5933;-157.38;-178.89
11.6129;-159.34;-173.02
11.6324;-161.29;-131.96
11.6520;-163.25;-182.80
11.6715;-165.20;-178.89
11.6911;-167.16;-182.80
11.7106;-169.11;-139.78
11.7302;-171.07;-188.66
11.7497;-173.02;-186.71
11.7693;-174.98;-190.62
11.7888;-176.93;-149.56
11.8084;-178.89;-200.39
11.8279;-180.84;-196.48
11.8475;-182.80;-151.52
11.8670;-184.75;-157.38
11.8866;-186.71;-161.29
11.9061;-188.66;-206.26
11.9257;-190.62;-206.26
11.9452;-192.57;-163.25
11.9648;-194.53;-216.03
11.9843;-196.48;-212.12
12.0039;-198.44;-165.20
12.0234;-200.39;-173.02
12.0430;-202.35;-217.99
12.0626;-204.30;-221.90
12.0821;-206.26;-219.94
12.1017;-208.21;-176.93
12.1212;-210.17;-180.84
12.1408;-212.12;-227.76
12.1603;-214.08;-182.80
12.1799;-216.03;-186.71
12.1994;-217.99;-237.54
12.2190;-219.94;-235.58
12.2385;-221.90;-190.62
12.2581;-223.85;-194.53
12.2776;-225.81;-243.40
12.2972;-227.76;-243.40
12.3167;-229.72;-241.45
12.3363;-231.67;-202.35
12.3558;-233.63;-251.22
12.3754;-235.58;-251.22
12.3949;-237.54;-251.22
12.4145;-239.49;-210.17
12.4340;-241.45;-261.00
12.4536;-243.40;-257.09
12.4731;-245.36;-259.04
12.4927;-247.31;-217.99
12.5122;-249.27;-266.86
12.5318;-251.22;-266.86
12.5513;-253.18;-264.91
12.5709;-255.13;-223.85
12.5904;-257.09;-274.68
12.6100;-259.04;-270.77
12.6295;-261.00;-225.81
12.6491;-262.95;-231.67
12.6686;-264.91;-282.50
12.6882;-266.86;-280.55
12.7077;-268.82;-282.50
12.7273;-270.77;-243.40
12.7468;-272.73;-288.37
12.7664;-274.68;-288.37
12.7859;-276.64;-292.28
12.8055;-278.59;-247.31
12.8250;-280.55;-296.19
12.8446;-282.50;-298.14
12.8641;-284.46;-298.14
12.8837;-286.41;-257.09
12.9032;-288.37;-304.01
12.9228;-290.32;-305.96
12.9423;-292.28;-304.01
12.9619;-294.23;-261.00
12.9814;-296.19;-311.83
13.0010;-298.14;-313.78
13.0205;-300.10;-266.86
13.0401;-302.05;-272.73
13.0596;-304.01;-315.74
13.0792;-305.96;-317.69
13.0987;-307.92;-274.68
13.1183;-309.87;-276.64
13.1378;-311.83;-327.47
13.1574;-313.78;-329.42
13.1769;-315.74;-325.51
13.1965;-317.69;-286.41
13.2160;-319.65;-335.29
13.2356;-321.60;-333.33
13.2551;-323.56;-335.29
13.2747;-325.51;-292.28
13.2942;-327.47;-343.11
13.3138;-329.42;-347.02
13.3333;-331.38;-341.15
13.3529;-333.33;-304.01
13.3724;-335.29;-352.88
13.3920;-337.24;-347.02
13.4115;-339.20;-350.93
13.4311;-341.15;-309.87
13.4506;-343.11;-358.75
13.4702;-345.06;-356.79
13.4897;-347.02;-315.74
13.5093;-348.97;-319.65
13.5288;-350.93;-366.57
13.5484;-352.88;-366.57
13.5679;-354.84;-364.61
13.5875;-356.79;-321.60
13.6070;-358.75;-372.43
13.6266;-360.70;-372.43
13.6461;-362.66;-372.43
13.6657;-364.61;-331.38
13.6852;-366.57;-335.29
13.7048;-368.52;-378.30
13.7243;-370.48;-380.25
13.7439;-372.43;-343.11
13.7634;-374.39;-388.07
13.7830;-376.34;-388.07
13.8025;-378.30;-347.02
13.8221;-380.25;-343.11
13.8416;-382.21;-393.94
13.8612;-384.16;-395.89
13.8807;-386.12;-350.93
13.9003;-388.07;-399.80
13.9198;-390.03;-403.71
13.9394;-391.98;-403.71
13.9589;-393.94;-403.71
13.9785;-395.89;-360.70
13.9980;-397.85;-409.58
14.0176;-399.80;-409.58
14.0371;-401.76;-409.58
14.0567;-403.71;-368.52
14.0762;-405.67;-417.40
14.0958;-407.62;-417.40
14.1153;-409.58;-417.40
14.1349;-411.53;-376.34
14.1544;-413.49;-427.18
14.1740;-415.44;-425.22
14.1935;-417.40;-425.22
14.2131;-419.35;-386.12
14.2326;-421.31;-388.07
14.2522;-423.26;-435.00
14.2717;-425.22;-433.04
14.2913;-427.18;-391.98
14.3108;-429.13;-440.86
14.3304;-431.09;-442.82
14.3499;-433.04;-397.85
14.3695;-435.00;-403.71
14.3890;-436.95;-450.64
14.4086;-438.91;-448.68
14.4281;-440.86;-448.68
14.4477;-442.82;-409.58
14.4672;-444.77;-458.46
14.4868;-446.73;-454.55
14.5063;-448.68;-411.53
14.5259;-450.64;-417.40
14.5454;-452.59;-464.32
14.5650;-454.55;-462.37
14.5845;-456.50;-419.35
14.6041;-458.46;-423.26
14.6236;-460.41;-472.14
14.6432;-462.37;-468.23
14.6627;-464.32;-474.10
14.6823;-466.28;-431.09
14.7018;-468.23;-478.01
14.7214;-470.19;-479.96
14.7409;-472.14;-436.95
14.7605;-474.10;-487.78
14.7800;-476.05;-485.83
14.7996;-478.01;-485.83
14.8191;-479.96;-485.83
14.8387;-481.92;-446.73
14.8582;-483.87;-495.60
14.8778;-485.83;-491.69
14.8973;-487.78;-493.65
14.9169;-489.74;-456.50
14.9364;-491.69;-503.42
14.9560;-493.65;-501.47
14.9755;-495.60;-501.47
14.9951;-497.56;-462.37
15.0146;-499.51;-513.20
15.0342;-501.47;-513.20
15.0537;-503.42;-507.33
15.0733;-505.38;-468.23
15.0929;-507.33;-517.11
15.1124;-509.29;-519.06
15.1320;-511.24;-517.11
15.1515;-513.20;-476.05
15.1711;-515.15;-524.93
15.1906;-517.11;-526.88
15.2102;-519.06;-526.88
15.2297;-521.02;-487.78
15.2493;-522.97;-532.75
15.2688;-524.93;-536.66
15.2884;-526.88;-532.75
15.3079;-528.84;-491.69
15.3275;-530.79;-544.48
15.3470;-532.75;-542.52
15.3666;-534.70;-538.61
15.3861;-536.66;-499.51
15.4057;-538.61;-548.39
15.4252;-540.57;-548.39
15.4448;-542.52;-548.39
15.4643;-544.48;-507.33
15.4839;-546.43;-558.16
15.5034;-548.39;-554.25
15.5230;-550.34;-554.25
15.5425;-552.30;-517.11
15.5621;-554.25;-562.07
15.5816;-556.21;-565.98
15.6012;-558.16;-562.07
15.6207;-560.12;-521.02
15.6403;-562.07;-571.85
15.6598;-564.03;-571.85
15.6794;-565.98;-571.85
15.6989;-567.94;-534.70
15.7185;-569.89;-577.71
15.7380;-571.85;-577.71
15.7576;-573.80;-577.71
15.7771;-575.76;-536.66
15.7967;-577.71;-585.53
15.8162;-579.67;-589.44
15.8358;-581.62;-587.49
15.8553;-583.58;-548.39
15.8749;-585.53;-593.35
15.8944;-587.49;-591.40
15.9140;-589.44;-595.31
15.9335;-591.40;-601.17
15.9531;-593.35;-599.22
15.9726;-595.31;-601.17
15.9922;-597.26;-601.17
16.0117;-599.22;-562.07
16.0313;-601.17;-607.04
16.0508;-603.13;-607.04
16.0704;-605.08;-565.98
16.0899;-607.04;-567.94
16.1095;-608.99;-614.86
16.1290;-610.95;-614.86
16.1486;-612.90;-616.81
16.1681;-614.86;-577.71
16.1877;-616.81;-626.59
16.2072;-618.77;-622.68
16.2268;-620.72;-626.59
16.2463;-622.68;-587.49
16.2659;-624.63;-632.45
16.2854;-626.59;-630.50
16.3050;-628.54;-585.53
16.3245;-630.50;-595.31
16.3441;-632.45;-638.32
16.3636;-634.41;-640.27
16.3832;-636.36;-642.23
16.4027;-638.32;-603.13
16.4223;-640.27;-646.14
16.4418;-642.23;-646.14
16.4614;-644.18;-650.05
16.4809;-646.14;-653.96
16.5005;-648.09;-655.91
16.5200;-650.05;-655.91
16.5396;-652.00;-655.91
16.5591;-653.96;-612.90
16.5787;-655.91;-661.78
16.5982;-657.87;-663.73
16.6178;-659.82;-661.78
16.6373;-661.78;-624.63
16.6569;-663.73;-667.64
16.6764;-665.69;-671.55
16.6960;-667.64;-673.51
16.7155;-669.60;-628.54
16.7351;-671.55;-681.33
16.7546;-673.51;-677.42
16.7742;-675.46;-677.42
16.7937;-677.42;-640.27
16.8133;-679.37;-685.24
16.8328;-681.33;-685.24
16.8524;-683.28;-685.24
16.8719;-685.24;-644.18
16.8915;-687.19;-691.10
16.9110;-689.15;-691.10
16.9306;-691.10;-693.06
16.9501;-693.06;-696.97
16.9697;-695.01;-700.88
16.9892;-696.97;-698.92
17.0088;-698.92;-704.79
17.0283;-700.88;-704.79
17.0479;-702.83;-704.79
17.0674;-704.79;-710.66
17.0870;-706.74;-665.69
17.1065;-708.70;-712.61
17.1261;-710.66;-714.57
17.1456;-712.61;-716.52
17.1652;-714.57;-724.34
17.1847;-716.52;-722.39
17.2043;-718.48;-722.39
17.2238;-720.43;-724.34
17.2434;-722.39;-726.30
17.2629;-724.34;-730.21
17.2825;-726.30;-730.21
17.3020;-728.25;-732.16
17.3216;-730.21;-732.16
17.3411;-732.16;-691.10
17.3607;-734.12;-738.03
17.3802;-736.07;-738.03
17.3998;-738.03;-738.03
17.4193;-739.98;-743.89
17.4389;-741.94;-749.76
17.4584;-743.89;-747.80
17.4780;-745.85;-747.80
17.4975;-747.80;-751.71
17.5171;-749.76;-753.67
17.5366;-751.71;-755.62
17.5562;-753.67;-753.67
17.5757;-755.62;-714.57
17.5953;-757.58;-759.53
17.6148;-759.53;-761.49
17.6344;-761.49;-761.49
17.6539;-763.44;-771.26
17.6735;-765.40;-769.31
17.6930;-767.35;-769.31
17.7126;-769.31;-775.17
17.7321;-771.26;-730.21
17.7517;-773.22;-777.13
17.7712;-775.17;-779.08
17.7908;-777.13;-779.08
17.8103;-779.08;-784.95
17.8299;-781.04;-784.95
17.8494;-782.99;-786.90
17.8690;-784.95;-739.98
17.8885;-786.90;-790.81
17.9081;-788.86;-790.81
17.9276;-790.81;-792.77
17.9472;-792.77;-794.72
17.9667;-794.72;-796.68
17.9863;-796.68;-800.59
18.0058;-798.63;-800.59
18.0254;-800.59;-802.54
18.0450;-802.54;-808.41
18.0645;-804.50;-804.50
18.0841;-806.45;-810.36
18.1036;-808.41;-812.32
18.1232;-810.36;-767.35
18.1427;-812.32;-816.23
18.1623;-814.27;-816.23
18.1818;-816.23;-816.23
18.2014;-818.18;-824.05
18.2209;-820.14;-822.09
18.2405;-822.09;-827.96
18.2600;-824.05;-784.95
18.2796;-826.00;-827.96
18.2991;-827.96;-829.91
18.3187;-829.91;-831.87
18.3382;-831.87;-829.91
18.3578;-833.82;-839.69
18.3773;-835.78;-833.82
18.3969;-837.73;-839.69
18.4164;-839.69;-841.64
18.4360;-841.64;-841.64
18.4555;-843.60;-845.55
18.4751;-845.55;-845.55
18.4946;-847.51;-849.46
18.5142;-849.46;-847.51
18.5337;-851.42;-851.42
18.5533;-853.37;-851.42
18.5728;-855.33;-857.28
18.5924;-857.28;-812.32
18.6119;-859.24;-859.24
18.6315;-861.19;-865.10
18.6510;-863.15;-863.15
18.6706;-865.10;-867.06
18.6901;-867.06;-869.01
18.7097;-869.01;-869.01
18.7292;-870.97;-869.01
18.7488;-872.92;-874.88
18.7683;-874.88;-874.88
18.7879;-876.83;-878.79
18.8074;-878.79;-837.73
18.8270;-880.74;-886.61
18.8465;-882.70;-882.70
18.8661;-884.65;-882.70
18.8856;-886.61;-886.61
18.9052;-888.56;-892.47
18.9247;-890.52;-888.56
18.9443;-892.47;-892.47
18.9638;-894.43;-894.43
18.9834;-896.38;-896.38
19.0029;-898.34;-904.20
19.0225;-900.29;-902.25
19.0420;-902.25;-900.29
19.0616;-904.20;-908.11
19.0811;-906.16;-906.16
19.1007;-908.11;-906.16
19.1202;-910.07;-861.19
19.1398;-912.02;-912.02
19.1593;-913.98;-917.89
19.1789;-915.93;-919.84
19.1984;-917.89;-917.89
19.2180;-919.84;-921.80
19.2375;-921.80;-923.75
19.2571;-923.75;-925.71
19.2766;-925.71;-925.71
19.2962;-927.66;-925.71
19.3157;-929.62;-929.62
19.3353;-931.57;-931.57
19.3548;-933.53;-929.62
19.3744;-935.48;-935.48
19.3939;-937.44;-937.44
19.4135;-939.39;-939.39
19.4330;-941.35;-939.39
19.4526;-943.30;-943.30
19.4721;-945.26;-951.12
19.4917;-947.21;-945.26
19.5112;-949.17;-955.03
19.5308;-951.12;-949.17
19.5503;-953.08;-956.99
19.5699;-955.03;-955.03
19.5894;-956.99;-955.03
19.6090;-958.94;-956.99
19.6285;-960.90;-958.94
19.6481;-962.85;-960.90
19.6676;-964.81;-962.85
19.6872;-966.76;-964.81
19.7067;-968.72;-966.76
19.7263;-970.67;-970.67
19.7458;-972.63;-972.63
19.7654;-974.58;-974.58
19.7849;-976.54;-970.67
19.8045;-978.49;-976.54
19.8240;-980.45;-978.49
19.8436;-982.40;-980.45
19.8631;-984.36;-980.45
19.8827;-986.31;-984.36
19.9022;-988.27;-990.22
19.9218;-990.22;-988.27
19.9413;-992.18;-990.22
19.9609;-994.13;-994.13
19.9804;-996.09;-994.13
20.0000;-998.05;-996.09
20.0195;-1000.00;-1000.00
20.0391;-1000.00;-1000.00
20.0586;-998.05;-1000.00
20.0782;-996.09;-996.09
20.0977;-994.13;-994.13
20.1173;-992.18;-996.09
20.1368;-990.22;-992.18
20.1564;-988.27;-990.22
20.1759;-986.31;-986.31
20.1955;-984.36;-986.31
20.2150;-982.40;-984.36
20.2346;-980.45;-986.31
20.2541;-978.49;-978.49
20.2737;-976.54;-976.54
20.2932;-974.58;-978.49
20.3128;-972.63;-976.54
20.3323;-970.67;-974.58
20.3519;-968.72;-970.67
20.3714;-966.76;-968.72
20.3910;-964.81;-962.85
20.4105;-962.85;-962.85
20.4301;-960.90;-962.85
20.4496;-958.94;-960.90
20.4692;-956.99;-960.90
20.4887;-955.03;-956.99
20.5083;-953.08;-958.94
20.5278;-951.12;-953.08
20.5474;-949.17;-953.08
20.5669;-947.21;-947.21
20.5865;-945.26;-949.17
20.6060;-943.30;-947.21
20.6256;-941.35;-945.26
20.6451;-939.39;-941.35
20.6647;-937.44;-943.30
20.6842;-935.48;-935.48
20.7038;-933.53;-937.44
20.7233;-931.57;-886.61
20.7429;-929.62;-935.48
20.7624;-927.66;-931.57
20.7820;-925.71;-931.57
20.8015;-923.75;-927.66
20.8211;-921.80;-927.66
20.8406;-919.84;-921.80
20.8602;-917.89;-923.75
20.8797;-915.93;-921.80
20.8993;-913.98;-919.84
20.9188;-912.02;-915.93
20.9384;-910.07;-912.02
20.9579;-908.11;-867.06
20.9775;-906.16;-912.02
20.9970;-904.20;-908.11
21.0166;-902.25;-906.16
21.0361;-900.29;-906.16
21.0557;-898.34;-900.29
21.0753;-896.38;-900.29
21.0948;-894.43;-898.34
21.1144;-892.47;-849.46
21.1339;-890.52;-898.34
21.1535;-888.56;-890.52
21.1730;-886.61;-888.56
21.1926;-884.65;-845.55
21.2121;-882.70;-888.56
21.2317;-880.74;-884.65
21.2512;-878.79;-884.65
21.2708;-876.83;-880.74
21.2903;-874.88;-878.79
21.3099;-872.92;-874.88
21.3294;-870.97;-874.88
21.3490;-869.01;-872.92
21.3685;-867.06;-870.97
21.3881;-865.10;-869.01
21.4076;-863.15;-865.10
21.4272;-861.19;-820.14
21.4467;-859.24;-863.15
21.4663;-857.28;-861.19
21.4858;-855.33;-859.24
21.5054;-853.37;-859.24
21.5249;-851.42;-859.24
21.5445;-849.46;-855.33
21.5640;-847.51;-851.42
21.5836;-845.55;-849.46
21.6031;-843.60;-849.46
21.6227;-841.64;-847.51
21.6422;-839.69;-843.60
21.6618;-837.73;-843.60
21.6813;-835.78;-839.69
21.7009;-833.82;-835.78
21.7204;-831.87;-792.77
21.7400;-829.91;-837.73
21.7595;-827.96;-831.87
21.7791;-826.00;-833.82
21.7986;-824.05;-782.99
21.8182;-822.09;-827.96
21.8377;-820.14;-824.05
21.8573;-818.18;-822.09
21.8768;-816.23;-820.14
21.8964;-814.27;-820.14
21.9159;-812.32;-816.23
21.9355;-810.36;-814.27
21.9550;-808.41;-814.27
21.9746;-806.45;-763.44
21.9941;-804.50;-806.45
22.0137;-802.54;-812.32
22.0332;-800.59;-804.50
22.0528;-798.63;-804.50
22.0723;-796.68;-806.45
22.0919;-794.72;-798.63
22.1114;-792.77;-796.68
22.1310;-790.81;-798.63
22.1505;-788.86;-794.72
22.1701;-786.90;-794.72
22.1896;-784.95;-794.72
22.2092;-782.99;-790.81
22.2287;-781.04;-784.95
22.2483;-779.08;-782.99
22.2678;-777.13;-781.04
22.2874;-775.17;-782.99
22.3069;-773.22;-781.04
22.3265;-771.26;-777.13
22.3460;-769.31;-775.17
22.3656;-767.35;-773.22
22.3851;-765.40;-771.26
22.4047;-763.44;-767.35
22.4242;-761.49;-767.35
22.4438;-759.53;-771.26
22.4633;-757.58;-763.44
22.4829;-755.62;-761.49
22.5024;-753.67;-761.49
22.5220;-751.71;-757.58
22.5415;-749.76;-759.53
22.5611;-747.80;-753.67
22.5806;-745.85;-749.76
22.6002;-743.89;-751.71
22.6197;-741.94;-751.71
22.6393;-739.98;-745.85
22.6588;-738.03;-743.89
22.6784;-736.07;-745.85
22.6979;-734.12;-741.94
22.7175;-732.16;-738.03
22.7370;-730.21;-736.07
22.7566;-728.25;-736.07
22.7761;-726.30;-734.12
22.7957;-724.34;-732.16
22.8152;-722.39;-730.21
22.8348;-720.43;-728.25
22.8543;-718.48;-726.30
22.8739;-716.52;-724.34
22.8934;-714.57;-720.43
22.9130;-712.61;-724.34
22.9325;-710.66;-722.39
22.9521;-708.70;-716.52
22.9716;-706.74;-708.70
22.9912;-704.79;-669.60
23.0107;-702.83;-708.70
23.0303;-700.88;-708.70
23.0498;-698.92;-663.73
23.0694;-696.97;-706.74
23.0889;-695.01;-702.83
23.1085;-693.06;-702.83
23.1280;-691.10;-698.92
23.1476;-689.15;-650.05
23.1671;-687.19;-695.01
23.1867;-685.24;-693.06
23.2062;-683.28;-687.19
23.2258;-681.33;-644.18
23.2453;-679.37;-687.19
23.2649;-677.42;-683.28
23.2844;-675.46;-679.37
23.3040;-673.51;-683.28
23.3235;-671.55;-677.42
23.3431;-669.60;-677.42
23.3626;-667.64;-673.51
23.3822;-665.69;-630.50
23.4017;-663.73;-671.55
23.4213;-661.78;-669.60
23.4408;-659.82;-667.64
23.4604;-657.87;-622.68
23.4799;-655.91;-667.64
23.4995;-653.96;-663.73
23.5190;-652.00;-616.81
23.5386;-650.05;-614.86
23.5581;-648.09;-655.91
23.5777;-646.14;-655.91
23.5972;-644.18;-650.05
23.6168;-642.23;-608.99
23.6363;-640.27;-648.09
23.6559;-638.32;-648.09
23.6754;-636.36;-642.23
23.6950;-634.41;-599.22
23.7145;-632.45;-644.18
23.7341;-630.50;-638.32
23.7536;-628.54;-634.41
23.7732;-626.59;-591.40
23.7927;-624.63;-634.41
23.8123;-622.68;-632.45
23.8318;-620.72;-628.54
23.8514;-618.77;-583.58
23.8709;-616.81;-626.59
23.8905;-614.86;-618.77
23.9100;-612.90;-581.62
23.9296;-610.95;-577.71
23.9491;-608.99;-618.77
23.9687;-607.04;-618.77
23.9882;-605.08;-569.89
24.0078;-603.13;-616.81
24.0273;-601.17;-614.86
24.0469;-599.22;-607.04
24.0664;-597.26;-601.17
24.0860;-595.31;-605.08
24.1056;-593.35;-607.04
24.1251;-591.40;-601.17
24.1447;-589.44;-595.31
24.1642;-587.49;-554.25
24.1838;-585.53;-597.26
24.2033;-583.58;-591.40
24.2229;-581.62;-589.44
24.2424;-579.67;-544.48
24.2620;-577.71;-589.44
24.2815;-575.76;-585.53
24.3011;-573.80;-540.57
24.3206;-571.85;-542.52
24.3402;-569.89;-583.58
24.3597;-567.94;-579.67
24.3793;-565.98;-575.76
24.3988;-564.03;-579.67
24.4184;-562.07;-571.85
24.4379;-560.12;-569.89
24.4575;-558.16;-565.98
24.4770;-556.21;-526.88
24.4966;-554.25;-564.03
24.5161;-552.30;-564.03
24.5357;-550.34;-562.07
24.5552;-548.39;-517.11
24.5748;-546.43;-560.12
24.5943;-544.48;-552.30
24.6139;-542.52;-550.34
24.6334;-540.57;-509.29
24.6530;-538.61;-550.34
24.6725;-536.66;-546.43
24.6921;-534.70;-546.43
24.7116;-532.75;-495.60
24.7312;-530.79;-544.48
24.7507;-528.84;-540.57
24.7703;-526.88;-534.70
24.7898;-524.93;-491.69
24.8094;-522.97;-530.79
24.8289;-521.02;-532.75
24.8485;-519.06;-528.84
24.8680;-517.11;-483.87
24.8876;-515.15;-528.84
24.9071;-513.20;-522.97
24.9267;-511.24;-521.02
24.9462;-509.29;-478.01
24.9658;-507.33;-519.06
24.9853;-505.38;-517.11
25.0049;-503.42;-468.23
25.0244;-501.47;-470.19
25.0440;-499.51;-511.24
25.0635;-497.56;-509.29
25.0831;-495.60;-505.38
25.1026;-493.65;-462.37
25.1222;-491.69;-505.38
25.1417;-489.74;-501.47
25.1613;-487.78;-497.56
25.1808;-485.83;-452.59
25.2004;-483.87;-495.60
25.2199;-481.92;-493.65
25.2395;-479.96;-491.69
25.2590;-478.01;-493.65
25.2786;-476.05;-489.74
25.2981;-474.10;-487.78
25.3177;-472.14;-485.83
25.3372;-470.19;-436.95
25.3568;-468.23;-483.87
25.3763;-466.28;-481.92
25.3959;-464.32;-474.10
25.4154;-462.37;-427.18
25.4350;-460.41;-476.05
25.4545;-458.46;-472.14
25.4741;-456.50;-466.28
25.4936;-454.55;-425.22
25.5132;-452.59;-468.23
25.5327;-450.64;-464.32
25.5523;-448.68;-460.41
25.5718;-446.73;-411.53
25.5914;-444.77;-462.37
25.6109;-442.82;-454.55
25.6305;-440.86;-452.59
25.6500;-438.91;-415.44
25.6696;-436.95;-452.59
25.6891;-435.00;-450.64
25.7087;-433.04;-397.85
25.7282;-431.09;-395.89
25.7478;-429.13;-444.77
25.7673;-427.18;-444.77
25.7869;-425.22;-435.00
25.8064;-423.26;-395.89
25.8260;-421.31;-436.95
25.8455;-419.35;-433.04
25.8651;-417.40;-429.13
25.8846;-415.44;-386.12
25.9042;-413.49;-427.18
25.9237;-411.53;-423.26
25.9433;-409.58;-421.31
25.9628;-407.62;-376.34
25.9824;-405.67;-421.31
26.0019;-403.71;-417.40
26.0215;-401.76;-413.49
26.0410;-399.80;-415.44
26.0606;-397.85;-413.49
26.0801;-395.89;-407.62
26.0997;-393.94;-403.71
26.1192;-391.98;-362.66
26.1388;-390.03;-405.67
26.1583;-388.07;-401.76
26.1779;-386.12;-399.80
26.1974;-384.16;-352.88
26.2170;-382.21;-397.85
26.2365;-380.25;-397.85
26.2561;-378.30;-390.03
26.2756;-376.34;-345.06
26.2952;-374.39;-391.98
26.3147;-372.43;-390.03
26.3343;-370.48;-386.12
26.3538;-368.52;-341.15
26.3734;-366.57;-339.20
26.3929;-364.61;-378.30
26.4125;-362.66;-376.34
26.4320;-360.70;-333.33
26.4516;-358.75;-378.30
26.4711;-356.79;-376.34
26.4907;-354.84;-321.60
26.5102;-352.88;-329.42
26.5298;-350.93;-366.57
26.5493;-348.97;-364.61
26.5689;-347.02;-315.74
26.5884;-345.06;-319.65
26.6080;-343.11;-364.61
26.6275;-341.15;-356.79
26.6471;-339.20;-350.93
26.6666;-337.24;-307.92
26.6862;-335.29;-350.93
26.7057;-333.33;-348.97
26.7253;-331.38;-345.06
26.7448;-329.42;-298.14
26.7644;-327.47;-347.02
26.7839;-325.51;-343.11
26.8035;-323.56;-339.20
26.8230;-321.60;-296.19
26.8426;-319.65;-296.19
26.8621;-317.69;-333.33
26.8817;-315.74;-329.42
26.9012;-313.78;-286.41
26.9208;-311.83;-331.38
26.9403;-309.87;-323.56
26.9599;-307.92;-323.56
26.9794;-305.96;-276.64
26.9990;-304.01;-321.60
27.0185;-302.05;-317.69
27.0381;-300.10;-266.86
27.0576;-298.14;-268.82
27.0772;-296.19;-315.74
27.0967;-294.23;-309.87
27.1163;-292.28;-305.96
27.1359;-290.32;-259.04
27.1554;-288.37;-262.95
27.1750;-286.41;-302.05
27.1945;-284.46;-300.10
27.2141;-282.50;-251.22
27.2336;-280.55;-253.18
27.2532;-278.59;-298.14
27.2727;-276.64;-292.28
27.2923;-274.68;-247.31
27.3118;-272.73;-245.36
27.3314;-270.77;-290.32
27.3509;-268.82;-282.50
27.3705;-266.86;-239.49
27.3900;-264.91;-284.46
27.4096;-262.95;-280.55
27.4291;-261.00;-229.72
27.4487;-259.04;-231.67
27.4682;-257.09;-276.64
27.4878;-255.13;-274.68
27.5073;-253.18;-270.77
27.5269;-251.22;-223.85
27.5464;-249.27;-270.77
27.5660;-247.31;-264.91
27.5855;-245.36;-261.00
27.6051;-243.40;-217.99
27.6246;-241.45;-216.03
27.6442;-239.49;-257.09
27.6637;-237.54;-253.18
27.6833;-235.58;-208.21
27.7028;-233.63;-253.18
27.7224;-231.67;-251.22
27.7419;-229.72;-245.36
27.7615;-227.76;-204.30
27.7810;-225.81;-245.36
27.8006;-223.85;-241.45
27.8201;-221.90;-194.53
27.8397;-219.94;-192.57
27.8592;-217.99;-196.48
27.8788;-216.03;-235.58
27.8983;-214.08;-186.71
27.9179;-212.12;-188.66
27.9374;-210.17;-231.67
27.9570;-208.21;-227.76
27.9765;-206.26;-221.90
27.9961;-204.30;-178.89
28.0156;-202.35;-221.90
28.0352;-200.39;-219.94
28.0547;-198.44;-171.07
28.0743;-196.48;-173.02
28.0938;-194.53;-217.99
28.1134;-192.57;-210.17
28.1329;-190.62;-208.21
28.1525;-188.66;-163.25
28.1720;-186.71;-165.20
28.1916;-184.75;-204.30
28.2111;-182.80;-198.44
28.2307;-180.84;-153.47
28.2502;-178.89;-202.35
28.2698;-176.93;-196.48
28.2893;-174.98;-192.57
28.3089;-173.02;-149.56
28.3284;-171.07;-147.61
28.3480;-169.11;-190.62
28.3675;-167.16;-190.62
28.3871;-165.20;-137.83
28.4066;-163.25;-143.70
28.4262;-161.29;-180.84
28.4457;-159.34;-176.93
28.4653;-157.38;-130.01
28.4848;-155.43;-131.96
28.5044;-153.47;-174.98
28.5239;-151.52;-167.16
28.5435;-149.56;-122.19
28.5630;-147.61;-128.05
28.5826;-145.65;-167.16
28.6021;-143.70;-159.34
28.6217;-141.74;-118.28
28.6412;-139.78;-118.28
28.6608;-137.83;-157.38
28.6803;-135.87;-106.55
28.6999;-133.92;-108.50
28.7194;-131.96;-110.46
28.7390;-130.01;-151.52
28.7585;-128.05;-100.68
28.7781;-126.10;-104.59
28.7976;-124.14;-102.64
28.8172;-122.19;-145.65
28.8367;-120.23;-139.78
28.8563;-118.28;-94.82
28.8758;-116.32;-141.74
28.8954;-114.37;-131.96
28.9149;-112.41;-88.95
28.9345;-110.46;-131.96
28.9540;-108.50;-85.04
28.9736;-106.55;-87.00
28.9931;-104.59;-122.19
29.0127;-102.64;-79.18
29.0322;-100.68;-120.23
29.0518;-98.73;-120.23
29.0713;-96.77;-71.36
29.0909;-94.82;-67.45
29.1104;-92.86;-114.37
29.1300;-90.91;-67.45
29.1495;-88.95;-106.55
29.1691;-87.00;-67.45
29.1886;-85.04;-63.54
29.2082;-83.09;-55.72
29.2277;-81.13;-106.55
29.2473;-79.18;-51.81
29.2668;-77.22;-98.73
29.2864;-75.27;-98.73
29.3059;-73.31;-51.81
29.3255;-71.36;-43.99
29.3450;-69.40;-42.03
29.3646;-67.45;-92.86
29.3841;-65.49;-43.99
29.4037;-63.54;-38.12
29.4232;-61.58;-85.04
29.4428;-59.63;-81.13
29.4623;-57.67;-36.17
29.4819;-55.72;-30.30
29.5014;-53.76;-75.27
29.5210;-51.81;-79.18
29.5405;-49.85;-28.35
29.5601;-47.90;-28.35
29.5796;-45.94;-67.45
29.5992;-43.99;-69.40
29.6187;-42.03;-24.44
29.6383;-40.08;-16.62
29.6578;-38.12;-61.58
29.6774;-36.17;-63.54
29.6969;-34.21;-16.62
29.7165;-32.26;-8.80
29.7360;-30.30;-8.80
29.7556;-28.35;-4.89
29.7751;-26.39;-0.98
29.7947;-24.44;-0.98
29.8142;-22.48;2.93
29.8338;-20.53;-2.93
29.8533;-18.57;0.98
29.8729;-16.62;-42.03
29.8924;-14.66;2.93
29.9120;-12.71;-38.12
29.9315;-10.75;10.75
29.9511;-8.80;16.62
29.9706;-6.84;10.75
29.9902;-4.89;-28.35
30.0097;-2.93;-24.44
30.0293;-0.98;-24.44
30.0488;0.98;-20.53
30.0684;2.93;28.35
30.0879;4.89;22.48
30.1075;6.84;-16.62
30.1270;8.80;28.35
30.1466;10.75;-12.71
30.1662;12.71;-10.75
30.1857;14.66;-4.89
30.2053;16.62;38.12
30.2248;18.57;34.21
30.2444;20.53;-4.89
30.2639;22.48;2.93
30.2835;24.44;42.03
30.3030;26.39;0.98
30.3226;28.35;51.81
30.3421;30.30;49.85
30.3617;32.26;4.89
30.3812;34.21;57.67
30.4008;36.17;8.80
30.4203;38.12;14.66
30.4399;40.08;57.67
30.4594;42.03;14.66
30.4790;43.99;20.53
30.4985;45.94;71.36
30.5181;47.90;67.45
30.5376;49.85;67.45
30.5572;51.81;24.44
30.5767;53.76;32.26
30.5963;55.72;77.22
30.6158;57.67;75.27
30.6354;59.63;67.45
30.6549;61.58;83.09
30.6745;63.54;83.09
30.6940;65.49;83.09
30.7136;67.45;40.08
30.7331;69.40;92.86
30.7527;71.36;92.86
30.7722;73.31;90.91
30.7918;75.27;47.90
30.8113;77.22;53.76
30.8309;79.18;98.73
30.8504;81.13;98.73
30.8700;83.09;57.67
30.8895;85.04;106.55
30.9091;87.00;106.55
30.9286;88.95;110.46
30.9482;90.91;69.40
30.9677;92.86;110.46
30.9873;94.82;116.32
31.0068;96.77;116.32
31.0264;98.73;116.32
31.0459;100.68;73.31
31.0655;102.64;116.32
31.0850;104.59;120.23
31.1046;106.55;130.01
31.1241;108.50;83.09
31.1437;110.46;83.09
31.1632;112.41;85.04
31.1828;114.37;88.95
31.2023;116.32;90.91
31.2219;118.28;88.95
31.2414;120.23;96.77
31.2610;122.19;94.82
31.2805;124.14;100.68
31.3001;126.10;98.73
31.3196;128.05;143.70
31.3392;130.01;145.65
31.3587;131.96;153.47
31.3783;133.92;106.55
31.3978;135.87;151.52
31.4174;137.83;157.38
31.4369;139.78;161.29
31.4565;141.74;114.37
31.4760;143.70;159.34
31.4956;145.65;163.25
31.5151;147.61;120.23
31.5347;149.56;122.19
31.5542;151.52;169.11
31.5738;153.47;173.02
31.5933;155.43;128.05
31.6129;157.38;131.96
31.6324;159.34;176.93
31.6520;161.29;180.84
31.6715;163.25;139.78
31.6911;165.20;139.78
31.7106;167.16;178.89
31.7302;169.11;184.75
31.7497;171.07;192.57
31.7693;173.02;145.65
31.7888;174.98;188.66
31.8084;176.93;194.53
31.8279;178.89;198.44
31.8475;180.84;155.43
31.8670;182.80;198.44
31.8866;184.75;202.35
31.9061;186.71;206.26
31.9257;188.66;161.29
31.9452;190.62;202.35
31.9648;192.57;210.17
31.9843;194.53;214.08
32.0039;196.48;171.07
32.0234;198.44;214.08
32.0430;200.39;216.03
32.0625;202.35;221.90
32.0821;204.30;178.89
32.1016;206.26;221.90
32.1212;208.21;227.76
32.1407;210.17;231.67
32.1603;212.12;186.71
32.1798;214.08;229.72
32.1994;216.03;233.63
32.2189;217.99;192.57
32.2385;219.94;190.62
32.2580;221.90;190.62
32.2776;223.85;241.45
32.2971;225.81;200.39
32.3167;227.76;196.48
32.3362;229.72;245.36
32.3558;231.67;251.22
32.3753;233.63;208.21
32.3949;235.58;206.26
32.4144;237.54;255.13
32.4340;239.49;257.09
32.4535;241.45;216.03
32.4731;243.40;212.12
32.4926;245.36;259.04
32.5122;247.31;266.86
32.5317;249.27;221.90
32.5513;251.22;219.94
32.5708;253.18;268.82
32.5904;255.13;272.73
32.6099;257.09;274.68
32.6295;259.04;229.72
32.6490;261.00;227.76
32.6686;262.95;280.55
32.6881;264.91;237.54
32.7077;266.86;237.54
32.7272;268.82;280.55
32.7468;270.77;288.37
32.7663;272.73;241.45
32.7859;274.68;245.36
32.8054;276.64;290.32
32.8250;278.59;292.28
32.8445;280.55;300.10
32.8641;282.50;253.18
32.8836;284.46;296.19
32.9032;286.41;300.10
32.9227;288.37;261.00
32.9423;290.32;259.04
32.9618;292.28;307.92
32.9814;294.23;311.83
33.0009;296.19;311.83
33.0205;298.14;268.82
33.0401;300.10;313.78
33.0596;302.05;317.69
33.0792;304.01;323.56
33.0987;305.96;276.64
33.1183;307.92;321.60
33.1378;309.87;325.51
33.1574;311.83;284.46
33.1769;313.78;325.51
33.1965;315.74;329.42
33.2160;317.69;333.33
33.2356;319.65;292.28
33.2551;321.60;290.32
33.2747;323.56;339.20
33.2942;325.51;341.15
33.3138;327.47;298.14
33.3333;329.42;341.15
33.3529;331.38;345.06
33.3724;333.33;350.93
33.3920;335.29;352.88
33.4115;337.24;348.97
33.4311;339.20;352.88
33.4506;341.15;356.79
33.4702;343.11;313.78
33.4897;345.06;313.78
33.5093;347.02;358.75
33.5288;348.97;364.61
33.5484;350.93;368.52
33.5679;352.88;364.61
33.5875;354.84;370.48
33.6070;356.79;370.48
33.6266;358.75;327.47
33.6461;360.70;327.47
33.6657;362.66;376.34
33.6852;364.61;382.21
33.7048;366.57;337.24
33.7243;368.52;382.21
33.7439;370.48;384.16
33.7634;372.43;386.12
33.7830;374.39;393.94
33.8025;376.34;345.06
33.8221;378.30;390.03
33.8416;380.25;393.94
33.8612;382.21;350.93
33.8807;384.16;350.93
33.9003;386.12;395.89
33.9198;388.07;401.76
33.9394;390.03;405.67
33.9589;391.98;358.75
33.9785;393.94;405.67
33.9980;395.89;409.58
34.0176;397.85;413.49
34.0371;399.80;370.48
34.0567;401.76;413.49
34.0762;403.71;421.31
34.0958;405.67;419.35
34.1153;407.62;419.35
34.1349;409.58;423.26
34.1544;411.53;425.22
34.1740;413.49;382.21
34.1935;415.44;423.26
34.2131;417.40;427.17
34.2326;419.35;433.04
34.2522;421.31;391.98
34.2717;423.26;435.00
34.2913;425.22;436.95
34.3108;427.17;440.86
34.3304;429.13;442.82
34.3499;431.09;395.89
34.3695;433.04;444.77
34.3890;435.00;444.77
34.4086;436.95;448.68
34.4281;438.91;446.73
34.4477;440.86;452.59
34.4672;442.82;454.55
34.4868;444.77;458.46
34.5063;446.73;456.50
34.5259;448.68;460.41
34.5454;450.64;464.32
34.5650;452.59;468.23
34.5845;454.55;464.32
34.6041;456.50;466.28
34.6236;458.46;472.14
34.6432;460.41;429.13
34.6627;462.37;470.19
34.6823;464.32;476.05
34.7018;466.28;478.01
34.7214;468.23;435.00
34.7409;470.19;435.00
34.7605;472.14;481.92
34.7800;474.10;481.92
34.7996;476.05;487.78
34.8191;478.01;487.78
34.8387;479.96;489.74
34.8582;481.92;491.69
34.8778;483.87;450.64
34.8973;485.83;495.60
34.9169;487.78;497.56
34.9364;489.74;499.51
34.9560;491.69;458.46
34.9755;493.65;503.42
34.9951;495.60;505.38
35.0146;497.56;509.29
35.0342;499.51;511.24
35.0537;501.47;464.32
35.0733;503.42;511.24
35.0928;505.38;515.15
35.1124;507.33;472.14
35.1319;509.29;517.11
35.1515;511.24;521.02
35.1710;513.20;524.93
35.1906;515.15;526.88
35.2101;517.11;479.96
35.2297;519.06;526.88
35.2492;521.02;530.79
35.2688;522.97;534.70
35.2883;524.93;487.78
35.3079;526.88;534.70
35.3274;528.84;540.57
35.3470;530.79;542.52
35.3665;532.75;493.65
35.3861;534.70;544.48
35.4056;536.66;548.39
35.4252;538.61;499.51
35.4447;540.57;503.42
35.4643;542.52;552.30
35.4838;544.48;554.25
35.5034;546.43;560.12
35.5229;548.39;556.21
35.5425;550.34;560.12
35.5620;552.30;560.12
35.5816;554.25;567.94
35.6011;556.21;519.06
35.6207;558.16;567.94
35.6402;560.12;569.89
35.6598;562.07;573.80
35.6793;564.03;573.80
35.6989;565.98;573.80
35.7184;567.94;577.71
35.7380;569.89;579.67
35.7575;571.85;577.71
35.7771;573.80;581.62
35.7966;575.76;585.53
35.8162;577.71;587.49
35.8357;579.67;585.53
35.8553;581.62;587.49
35.8748;583.58;593.35
35.8944;585.53;597.26
35.9139;587.49;593.35
35.9335;589.44;595.31
35.9530;591.40;599.22
35.9726;593.35;556.21
35.9921;595.31;601.17
36.0117;597.26;605.08
36.0312;599.22;607.04
36.0508;601.17;612.90
36.0704;603.13;605.08
36.0899;605.08;612.90
36.1095;607.04;612.90
36.1290;608.99;620.72
36.1486;610.95;616.81
36.1681;612.90;618.77
36.1877;614.86;624.63
36.2072;616.81;579.67
36.2268;618.77;624.63
36.2463;620.72;626.59
36.2659;622.68;630.50
36.2854;624.63;634.41
36.3050;626.59;589.44
36.3245;628.54;634.41
36.3441;630.50;638.32
36.3636;632.45;595.31
36.3832;634.41;640.27
36.4027;636.36;642.23
36.4223;638.32;646.14
36.4418;640.27;650.05
36.4614;642.23;646.14
36.4809;644.18;648.09
36.5005;646.14;653.96
36.5200;648.09;655.91
36.5396;650.05;652.00
36.5591;652.00;657.87
36.5787;653.96;661.78
36.5982;655.91;663.73
36.6178;657.87;663.73
36.6373;659.82;667.64
36.6569;661.78;669.60
36.6764;663.73;624.63
36.6960;665.69;669.60
36.7155;667.64;673.51
36.7351;669.60;675.46
36.7546;671.55;679.37
36.7742;673.51;677.42
36.7937;675.46;679.37
36.8133;677.42;685.24
36.8328;679.37;687.19
36.8524;681.33;685.24
36.8719;683.28;689.15
36.8915;685.24;695.01
36.9110;687.19;695.01
36.9306;689.15;693.06
36.9501;691.10;696.97
36.9697;693.06;698.92
36.9892;695.01;702.83
37.0088;696.97;657.87
37.0283;698.92;704.79
37.0479;700.88;706.74
37.0674;702.83;710.65
37.0870;704.79;665.69
37.1065;706.74;712.61
37.1261;708.70;714.57
37.1456;710.65;718.48
37.1652;712.61;714.57
37.1847;714.57;718.48
37.2043;716.52;720.43
37.2238;718.48;679.37
37.2434;720.43;726.30
37.2629;722.39;726.30
37.2825;724.34;728.25
37.3020;726.30;730.21
37.3216;728.25;732.16
37.3411;730.21;736.07
37.3607;732.16;736.07
37.3802;734.12;693.06
37.3998;736.07;739.98
37.4193;738.03;741.94
37.4389;739.98;745.85
37.4584;741.94;700.88
37.4780;743.89;745.85
37.4975;745.85;749.76
37.5171;747.80;753.67
37.5366;749.76;708.70
37.5562;751.71;755.62
37.5757;753.67;759.53
37.5953;755.62;761.49
37.6148;757.58;716.52
37.6344;759.53;763.44
37.6539;761.49;767.35
37.6735;763.44;769.31
37.6930;765.40;769.31
37.7126;767.35;769.31
37.7321;769.31;775.17
37.7517;771.26;773.22
37.7712;773.22;775.17
37.7908;775.17;777.13
37.8103;777.13;781.04
37.8299;779.08;781.04
37.8494;781.04;786.90
37.8690;782.99;782.99
37.8885;784.95;786.90
37.9081;786.90;790.81
37.9276;788.86;745.85
37.9472;790.81;790.81
37.9667;792.77;796.68
37.9863;794.72;800.59
38.0058;796.68;802.54
38.0254;798.63;800.59
38.0449;800.59;804.50
38.0645;802.54;806.45
38.0840;804.50;808.41
38.1036;806.45;808.41
38.1231;808.41;808.41
38.1427;810.36;814.27
38.1622;812.32;818.18
38.1818;814.27;816.23
38.2013;816.23;818.18
38.2209;818.18;822.09
38.2404;820.14;826.00
38.2600;822.09;826.00
38.2795;824.05;826.00
38.2991;826.00;829.91
38.3186;827.96;833.82
38.3382;829.91;829.91
38.3577;831.87;833.82
38.3773;833.82;837.73
38.3968;835.78;837.73
38.4164;837.73;841.64
38.4359;839.69;839.69
38.4555;841.64;843.60
38.4750;843.60;843.60
38.4946;845.55;847.51
38.5141;847.51;849.46
38.5337;849.46;853.37
38.5532;851.42;853.37
38.5728;853.37;855.33
38.5923;855.33;857.28
38.6119;857.28;861.19
38.6314;859.24;859.24
38.6510;861.19;863.15
38.6705;863.15;863.15
38.6901;865.10;867.06
38.7096;867.06;870.97
38.7292;869.01;870.97
38.7487;870.97;872.92
38.7683;872.92;874.88
38.7878;874.88;878.79
38.8074;876.83;876.83
38.8269;878.79;880.74
38.8465;880.74;882.70
38.8660;882.70;886.61
38.8856;884.65;884.65
38.9051;886.61;890.52
38.9247;888.56;890.52
38.9442;890.52;890.52
38.9638;892.47;894.43
38.9833;894.43;898.34
39.0029;896.38;898.34
39.0224;898.34;902.25
39.0420;900.29;902.25
39.0615;902.25;902.25
39.0811;904.20;904.20
39.1007;906.16;908.11
39.1202;908.11;910.07
39.1398;910.07;910.07
39.1593;912.02;913.98
39.1789;913.98;915.93
39.1984;915.93;915.93
39.2180;917.89;917.89
39.2375;919.84;921.80
39.2571;921.80;921.80
39.2766;923.75;923.75
39.2962;925.71;927.66
39.3157;927.66;929.62
39.3353;929.62;929.62
39.3548;931.57;933.53
39.3744;933.53;935.48
39.3939;935.48;937.44
39.4135;937.44;937.44
39.4330;939.39;939.39
39.4526;941.35;941.35
39.4721;943.30;945.26
39.4917;945.26;947.21
39.5112;947.21;949.17
39.5308;949.17;947.21
39.5503;951.12;953.08
39.5699;953.08;955.03
39.5894;955.03;956.99
39.6090;956.99;958.94
39.6285;958.94;958.94
39.6481;960.90;962.85
39.6676;962.85;962.85
39.6872;964.81;964.81
39.7067;966.76;966.76
39.7263;968.72;970.67
39.7458;970.67;970.67
39.7654;972.63;970.67
39.7849;974.58;972.63
39.8045;976.54;974.58
39.8240;978.49;978.49
39.8436;980.45;978.49
39.8631;982.40;982.40
39.8827;984.36;982.40
39.9022;986.31;986.31
39.9218;988.27;986.31
39.9413;990.22;988.27
39.9609;992.18;992.18
39.9804;994.13;996.09
40.0000;996.09;996.09
40.0195;998.04;996.09
40.0391;1000.00;996.09
40.0586;1000.00;1000.00
40.0782;998.04;1000.00
40.0977;996.09;998.04
40.1173;994.13;998.04
40.1368;992.18;994.13
40.1564;990.22;992.18
40.1759;988.27;992.18
40.1955;986.31;988.27
40.2150;984.36;988.27
40.2346;982.40;984.36
40.2541;980.45;984.36
40.2737;978.49;980.45
40.2932;976.54;978.49
40.3128;974.58;974.58
40.3323;972.63;976.54
40.3519;970.67;974.58
40.3714;968.72;972.63
40.3910;966.76;970.67
40.4105;964.81;966.76
40.4301;962.85;966.76
40.4496;960.90;962.85
40.4692;958.94;960.90
40.4887;956.99;960.90
40.5083;955.03;958.94
40.5278;953.08;956.99
40.5474;951.12;955.03
40.5669;949.17;953.08
40.5865;947.21;953.08
40.6060;945.26;949.17
40.6256;943.30;945.26
40.6451;941.35;947.21
40.6647;939.39;943.30
40.6842;937.44;937.44
40.7038;935.48;939.39
40.7233;933.53;935.48
40.7429;931.57;935.48
40.7624;929.62;933.53
40.7820;927.66;931.57
40.8015;925.71;929.62
40.8211;923.75;927.66
40.8406;921.80;923.75
40.8602;919.84;921.80
40.8797;917.89;921.80
40.8993;915.93;919.84
40.9188;913.98;917.89
40.9384;912.02;915.93
40.9579;910.07;913.98
40.9775;908.11;913.98
40.9970;906.16;910.07
41.0166;904.20;906.16
41.0361;902.25;908.11
41.0557;900.29;906.16
41.0752;898.34;900.29
41.0948;896.38;900.29
41.1143;894.43;900.29
41.1339;892.47;896.38
41.1534;890.52;892.47
41.1730;888.56;894.43
41.1925;886.61;892.47
41.2121;884.65;888.56
41.2316;882.70;888.56
41.2512;880.74;884.65
41.2707;878.79;882.70
41.2903;876.83;882.70
41.3098;874.88;878.79
41.3294;872.92;878.79
41.3489;870.97;874.88
41.3685;869.01;874.88
41.3880;867.06;870.97
41.4076;865.10;869.01
41.4271;863.15;870.97
41.4467;861.19;867.06
41.4662;859.24;865.10
41.4858;857.28;863.15
41.5053;855.33;863.15
41.5249;853.37;855.33
41.5444;851.42;857.28
41.5640;849.46;853.37
41.5835;847.51;853.37
41.6031;845.55;851.42
41.6226;843.60;847.51
41.6422;841.64;847.51
41.6617;839.69;845.55
41.6813;837.73;843.60
41.7008;835.78;837.73
41.7204;833.82;839.69
41.7399;831.87;839.69
41.7595;829.91;833.82
41.7790;827.96;831.87
41.7986;826.00;831.87
41.8181;824.05;829.91
41.8377;822.09;829.91
41.8572;820.14;824.05
41.8768;818.18;826.00
41.8963;816.23;824.05
41.9159;814.27;824.05
41.9354;812.32;818.18
41.9550;810.36;816.23
41.9745;808.41;814.27
41.9941;806.45;814.27
42.0136;804.50;810.36
42.0332;802.54;808.41
42.0527;800.59;806.45
42.0723;798.63;806.45
42.0918;796.68;800.59
42.1114;794.72;802.54
42.1310;792.77;802.54
42.1505;790.81;798.63
42.1701;788.86;794.72
42.1896;786.90;794.72
42.2092;784.95;792.77
42.2287;782.99;743.89
42.2483;781.04;784.95
42.2678;779.08;784.95
42.2874;777.13;782.99
42.3069;775.17;782.99
42.3265;773.22;779.08
42.3460;771.26;779.08
42.3656;769.31;777.13
42.3851;767.35;730.21
42.4047;765.40;726.30
42.4242;763.44;771.26
42.4438;761.49;769.31
42.4633;759.53;720.43
42.4829;757.58;765.40
42.5024;755.62;761.49
42.5220;753.67;763.44
42.5415;751.71;714.57
42.5611;749.76;757.58
42.5806;747.80;755.62
42.6002;745.85;753.67
42.6197;743.89;749.76
42.6393;741.94;745.85
42.6588;739.98;747.80
42.6784;738.03;745.85
42.6979;736.07;745.85
42.7175;734.12;741.94
42.7370;732.16;738.03
42.7566;730.21;738.03
42.7761;728.25;691.10
42.7957;726.30;732.16
42.8152;724.34;732.16
42.8348;722.39;730.21
42.8543;720.43;730.21
42.8739;718.48;724.34
42.8934;716.52;724.34
42.9130;714.57;724.34
42.9325;712.61;677.42
42.9521;710.65;718.48
42.9716;708.70;716.52
42.9912;706.74;716.52
43.0107;704.79;714.57
43.0303;702.83;710.65
43.0498;700.88;706.74
43.0694;698.92;708.70
43.0889;696.97;704.79
43.1085;695.01;659.82
43.1280;693.06;700.88
43.1476;691.10;698.92
43.1671;689.15;655.91
43.1867;687.19;693.06
43.2062;685.24;693.06
43.2258;683.28;695.01
43.2453;681.33;646.14
43.2649;679.37;685.24
43.2844;677.42;687.19
43.3040;675.46;685.24
43.3235;673.51;681.33
43.3431;671.55;677.42
43.3626;669.60;677.42
43.3822;667.64;679.37
43.4017;665.69;675.46
43.4213;663.73;671.55
43.4408;661.78;669.60
43.4604;659.82;671.55
43.4799;657.87;667.64
43.4995;655.91;663.73
43.5190;653.96;663.73
43.5386;652.00;661.78
43.5581;650.05;661.78
43.5777;648.09;655.91
43.5972;646.14;655.91
43.6168;644.18;652.00
43.6363;642.23;607.04
43.6559;640.27;650.05
43.6754;638.32;648.09
43.6950;636.36;646.14
43.7145;634.41;646.14
43.7341;632.45;640.27
43.7536;630.50;638.32
43.7732;628.54;642.23
43.7927;626.59;638.32
43.8123;624.63;632.45
43.8318;622.68;634.41
43.8514;620.72;632.45
43.8709;618.77;630.50
43.8905;616.81;583.58
43.9100;614.86;622.68
43.9296;612.90;622.68
43.9491;610.95;624.63
43.9687;608.99;614.86
43.9882;607.04;614.86
44.0078;605.08;614.86
44.0273;603.13;569.89
44.0469;601.17;610.95
44.0664;599.22;607.04
44.0860;597.26;608.99
44.1055;595.31;608.99
44.1251;593.35;605.08
44.1446;591.40;601.17
44.1642;589.44;601.17
44.1837;587.49;554.25
44.2033;585.53;595.31
44.2228;583.58;595.31
44.2424;581.62;593.35
44.2619;579.67;587.49
44.2815;577.71;585.53
44.3010;575.76;583.58
44.3206;573.80;585.53
44.3401;571.85;585.53
44.3597;569.89;583.58
44.3792;567.94;579.67
44.3988;565.98;579.67
44.4183;564.03;577.71
44.4379;562.07;571.85
44.4574;560.12;573.80
44.4770;558.16;569.89
44.4965;556.21;524.93
44.5161;554.25;565.98
44.5356;552.30;562.07
44.5552;550.34;564.03
44.5747;548.39;562.07
44.5943;546.43;515.15
44.6138;544.48;556.21
44.6334;542.52;556.21
44.6529;540.57;554.25
44.6725;538.61;505.38
44.6920;536.66;546.43
44.7116;534.70;548.39
44.7311;532.75;499.51
44.7507;530.79;495.60
44.7702;528.84;536.66
44.7898;526.88;540.57
44.8093;524.93;538.61
44.8289;522.97;532.75
44.8484;521.02;532.75
44.8680;519.06;530.79
44.8875;517.11;487.78
44.9071;515.15;481.92
44.9266;513.20;524.93
44.9462;511.24;522.97
44.9657;509.29;526.88
44.9853;507.33;474.10
45.0048;505.38;517.11
45.0244;503.42;519.06
45.0439;501.47;517.11
45.0635;499.51;509.29
45.0830;497.56;511.24
45.1026;495.60;509.29
45.1222;493.65;462.37
45.1417;491.69;503.42
45.1613;489.74;503.42
45.1808;487.78;501.47
45.2004;485.83;501.47
45.2199;483.87;452.59
45.2395;481.92;495.60
45.2590;479.96;495.60
45.2786;478.01;448.68
45.2981;476.05;442.82
45.3177;474.10;489.74
45.3372;472.14;487.78
45.3568;470.19;440.86
45.3763;468.23;478.01
45.3959;466.28;479.96
45.4154;464.32;481.92
45.4350;462.37;431.09
45.4545;460.41;472.14
45.4741;458.46;472.14
45.4936;456.50;470.19
45.5132;454.55;423.26
45.5327;452.59;464.32
45.5523;450.64;462.37
45.5718;448.68;464.32
45.5914;446.73;419.35
45.6109;444.77;415.44
45.6305;442.82;454.55
45.6500;440.86;456.50
45.6696;438.91;411.53
45.6891;436.95;407.62
45.7087;435.00;446.73
45.7282;433.04;448.68
45.7478;431.09;450.64
45.7673;429.13;440.86
45.7869;427.17;440.86
45.8064;425.22;440.86
45.8260;423.26;395.89
45.8455;421.31;435.00
45.8651;419.35;436.95
45.8846;417.40;433.04
45.9042;415.44;431.09
45.9237;413.49;425.22
45.9433;411.53;427.17
45.9628;409.58;425.22
45.9824;407.62;378.30
46.0019;405.67;382.21
46.0215;403.71;417.40
46.0410;401.76;415.44
46.0606;399.80;417.40
46.0801;397.85;368.52
46.0997;395.89;409.58
46.1192;393.94;411.53
46.1388;391.98;409.58
46.1583;390.03;360.70
46.1779;388.07;403.71
46.1974;386.12;403.71
46.2170;384.16;354.84
46.2365;382.21;393.94
46.2561;380.25;395.89
46.2756;378.30;391.98
46.2952;376.34;352.88
46.3147;374.39;388.07
46.3343;372.43;388.07
46.3538;370.48;390.03
46.3734;368.52;343.11
46.3929;366.57;337.24
46.4125;364.61;382.21
46.4320;362.66;382.21
46.4516;360.70;378.30
46.4711;358.75;372.43
46.4907;356.79;372.43
46.5102;354.84;372.43
46.5298;352.88;327.47
46.5493;350.93;362.66
46.5689;348.97;364.61
46.5884;347.02;364.61
46.6080;345.06;362.66
46.6275;343.11;358.75
46.6471;341.15;358.75
46.6666;339.20;356.79
46.6862;337.24;313.78
46.7057;335.29;305.96
46.7253;333.33;347.02
46.7448;331.38;348.97
46.7644;329.42;302.05
46.7839;327.47;345.06
46.8035;325.51;341.15
46.8230;323.56;343.11
46.8426;321.60;341.15
46.8621;319.65;335.29
46.8817;317.69;335.29
46.9012;315.74;333.33
46.9208;313.78;331.38
46.9403;311.83;286.41
46.9599;309.87;325.51
46.9794;307.92;329.42
46.9990;305.96;327.47
47.0185;304.01;276.64
47.0381;302.05;270.77
47.0576;300.10;317.69
47.0772;298.14;319.65
47.0967;296.19;266.86
47.1163;294.23;309.87
47.1358;292.28;311.83
47.1554;290.32;264.91
47.1749;288.37;261.00
47.1945;286.41;304.01
47.2140;284.46;305.96
47.2336;282.50;257.09
47.2531;280.55;253.18
47.2727;278.59;292.28
47.2922;276.64;296.19
47.3118;274.68;251.22
47.3313;272.73;290.32
47.3509;270.77;286.41
47.3704;268.82;288.37
47.3900;266.86;288.37
47.4095;264.91;239.49
47.4291;262.95;282.50
47.4486;261.00;276.64
47.4682;259.04;280.55
47.4877;257.09;231.67
47.5073;255.13;268.82
47.5268;253.18;272.73
47.5464;251.22;274.68
47.5659;249.27;223.85
47.5855;247.31;264.91
47.6050;245.36;261.00
47.6246;243.40;264.91
47.6441;241.45;217.99
47.6637;239.49;255.13
47.6832;237.54;259.04
47.7028;235.58;257.09
47.7223;233.63;208.21
47.7419;231.67;249.27
47.7614;229.72;251.22
47.7810;227.76;249.27
47.8005;225.81;200.39
47.8201;223.85;243.40
47.8396;221.90;241.45
47.8592;219.94;241.45
47.8787;217.99;194.53
47.8983;216.03;233.63
47.9178;214.08;229.72
47.9374;212.12;188.66
47.9569;210.17;184.75
47.9765;208.21;225.81
47.9960;206.26;227.76
48.0156;204.30;227.76
48.0351;202.35;173.02
48.0547;200.39;219.94
48.0742;198.44;216.03
48.0938;196.48;217.99
48.1133;194.53;167.16
48.1329;192.57;212.12
48.1525;190.62;212.12
48.1720;188.66;212.12
48.1916;186.71;159.34
48.2111;184.75;202.35
48.2307;182.80;204.30
48.2502;180.84;204.30
48.2698;178.89;155.43
48.2893;176.93;194.53
48.3089;174.98;192.57
48.3284;173.02;196.48
48.3480;171.07;151.52
48.3675;169.11;186.71
48.3871;167.16;190.62
48.4066;165.20;186.71
48.4262;163.25;135.87
48.4457;161.29;178.89
48.4653;159.34;182.80
48.4848;157.38;180.84
48.5044;155.43;131.96
48.5239;153.47;169.11
48.5435;151.52;174.98
48.5630;149.56;173.02
48.5826;147.61;167.16
48.6021;145.65;163.25
48.6217;143.70;167.16
48.6412;141.74;120.23
48.6608;139.78;116.32
48.6803;137.83;155.43
48.6999;135.87;155.43
48.7194;133.92;157.38
48.7390;131.96;108.50
48.7585;130.01;145.65
48.7781;128.05;149.56
48.7976;126.10;153.47
48.8172;124.14;100.68
48.8367;122.19;141.74
48.8563;120.23;141.74
48.8758;118.28;143.70
48.8954;116.32;90.91
48.9149;114.37;92.86
48.9345;112.41;87.00
48.9540;110.46;88.95
48.9736;108.50;88.95
48.9931;106.55;85.04
49.0127;104.59;85.04
49.0322;102.64;81.13
49.0518;100.68;79.18
49.0713;98.73;120.23
49.0909;96.77;114.37
49.1104;94.82;114.37
49.1300;92.86;69.40
49.1495;90.91;67.45
49.1691;88.95;69.40
49.1886;87.00;108.50
49.2082;85.04;104.59
49.2277;83.09;102.64
49.2473;81.13;104.59
49.2668;79.18;102.64
49.2864;77.22;100.68
49.3059;75.27;98.73
49.3255;73.31;92.86
49.3450;71.36;49.85
49.3646;69.40;92.86
49.3841;67.45;90.91
49.4037;65.49;88.95
49.4232;63.54;42.03
49.4428;61.58;42.03
49.4623;59.63;83.09
49.4819;57.67;77.22
49.5014;55.72;34.21
49.5210;53.76;34.21
49.5405;51.81;73.31
49.5601;49.85;24.44
49.5796;47.90;26.39
49.5992;45.94;26.39
49.6187;43.99;67.45
49.6383;42.03;18.57
49.6578;40.08;20.53
49.6774;38.12;20.53
49.6969;36.17;61.58
49.7165;34.21;55.72
49.7360;32.26;8.80
49.7556;30.30;55.72
49.7751;28.35;47.90
49.7947;26.39;2.93
49.8142;24.44;49.85
49.8338;22.48;43.99
49.8533;20.53;-2.93
49.8729;18.57;0.98
49.8924;16.62;-10.75
49.9120;14.66;-8.80
49.9315;12.71;-6.84
49.9511;10.75;-8.80
49.9706;8.80;36.17
49.9902;6.84;-16.62
50.0097;4.89;-16.62
50.0293;2.93;-14.66
50.0488;0.98;26.39
50.0684;-0.98;-24.44
50.0879;-2.93;-24.44
50.1075;-4.89;-26.39
50.1270;-6.84;-28.35
50.1466;-8.80;-28.35
50.1661;-10.75;-28.35
50.1857;-12.71;-34.21
50.2052;-14.66;8.80
50.2248;-16.62;6.84
50.2443;-18.57;-38.12
50.2639;-20.53;-43.99
50.2834;-22.48;-0.98
50.3030;-24.44;-0.98
50.3225;-26.39;-4.89
50.3421;-28.35;-2.93
50.3616;-30.30;-6.84
50.3812;-32.26;-8.80
50.4007;-34.21;-55.72
50.4203;-36.17;-10.75
50.4398;-38.12;-59.63
50.4594;-40.08;-61.58
50.4789;-42.03;-16.62
50.4985;-43.99;-18.57
50.5180;-45.94;-61.58
50.5376;-47.90;-65.49
50.5571;-49.85;-28.35
50.5767;-51.81;-26.39
50.5962;-53.76;-71.36
50.6158;-55.72;-79.18
50.6353;-57.67;-34.21
50.6549;-59.63;-30.30
50.6744;-61.58;-79.18
50.6940;-63.54;-83.09
50.7135;-65.49;-42.03
50.7331;-67.45;-81.13
50.7526;-69.40;-87.00
50.7722;-71.36;-90.91
50.7917;-73.31;-47.90
50.8113;-75.27;-47.90
50.8308;-77.22;-90.91
50.8504;-79.18;-96.77
50.8699;-81.13;-55.72
50.8895;-83.09;-57.67
50.9090;-85.04;-59.63
50.9286;-87.00;-106.55
50.9481;-88.95;-63.54
50.9677;-90.91;-106.55
50.9872;-92.86;-73.31
51.0068;-94.82;-69.40
51.0263;-96.77;-114.37
51.0459;-98.73;-75.27
51.0654;-100.68;-118.28
51.0850;-102.64;-118.28
51.1045;-104.59;-77.22
51.1241;-106.55;-85.04
51.1436;-108.50;-124.14
51.1632;-110.46;-83.09
51.1828;-112.41;-131.96
51.2023;-114.37;-131.96
51.2219;-116.32;-87.00
51.2414;-118.28;-133.92
51.2610;-120.23;-135.87
51.2805;-122.19;-96.77
51.3001;-124.14;-139.78
51.3196;-126.10;-139.78
51.3392;-128.05;-100.68
51.3587;-130.01;-106.55
51.3783;-131.96;-151.52
51.3978;-133.92;-147.61
51.4174;-135.87;-108.50
51.4369;-137.83;-116.32
51.4565;-139.78;-157.38
51.4760;-141.74;-112.41
51.4956;-143.70;-112.41
51.5151;-145.65;-122.19
51.5347;-147.61;-165.20
51.5542;-149.56;-163.25
51.5738;-151.52;-122.19
51.5933;-153.47;-128.05
51.6129;-155.43;-173.02
51.6324;-157.38;-174.98
51.6520;-159.34;-131.96
51.6715;-161.29;-135.87
51.6911;-163.25;-180.84
51.7106;-165.20;-133.92
51.7302;-167.16;-133.92
51.7497;-169.11;-145.65
51.7693;-171.07;-188.66
51.7888;-173.02;-141.74
51.8084;-174.98;-151.52
51.8279;-176.93;-151.52
51.8475;-178.89;-196.48
51.8670;-180.84;-194.53
51.8866;-182.80;-155.43
51.9061;-184.75;-161.29
51.9257;-186.71;-204.30
51.9452;-188.66;-202.35
51.9648;-190.62;-159.34
51.9843;-192.57;-188.66
52.0039;-194.53;-208.21
52.0234;-196.48;-169.11
52.0430;-198.44;-171.07
52.0625;-200.39;-217.99
52.0821;-202.35;-217.99
52.1016;-204.30;-216.03
52.1212;-206.26;-174.98
52.1407;-208.21;-225.81
52.1603;-210.17;-225.81
52.1798;-212.12;-225.81
52.1994;-214.08;-188.66
52.2189;-216.03;-233.63
52.2385;-217.99;-237.54
52.2580;-219.94;-188.66
52.2776;-221.90;-196.48
52.2971;-223.85;-247.31
52.3167;-225.81;-241.45
52.3362;-227.76;-241.45
52.3558;-229.72;-198.44
52.3753;-231.67;-206.26
52.3949;-233.63;-251.22
52.4144;-235.58;-247.31
52.4340;-237.54;-210.17
52.4535;-239.49;-257.09
52.4731;-241.45;-257.09
52.4926;-243.40;-212.12
52.5122;-245.36;-214.08
52.5317;-247.31;-221.90
52.5513;-249.27;-264.91
52.5708;-251.22;-219.94
52.5904;-253.18;-223.85
52.6099;-255.13;-272.73
52.6295;-257.09;-272.73
52.6490;-259.04;-227.76
52.6686;-261.00;-233.63
52.6881;-262.95;-278.59
52.7077;-264.91;-278.59
52.7272;-266.86;-280.55
52.7468;-268.82;-235.58
52.7663;-270.77;-286.41
52.7859;-272.73;-286.41
52.8054;-274.68;-241.45
52.8250;-276.64;-247.31
52.8445;-278.59;-251.22
52.8641;-280.55;-292.28
52.8836;-282.50;-292.28
52.9032;-284.46;-253.18
52.9227;-286.41;-302.05
52.9423;-288.37;-302.05
52.9618;-290.32;-302.05
52.9814;-292.28;-259.04
53.0009;-294.23;-305.96
53.0205;-296.19;-307.92
53.0400;-298.14;-266.86
53.0596;-300.10;-272.73
53.0791;-302.05;-315.74
53.0987;-304.01;-313.78
53.1182;-305.96;-317.69
53.1378;-307.92;-274.68
53.1573;-309.87;-282.50
53.1769;-311.83;-325.51
53.1964;-313.78;-325.51
53.2160;-315.74;-284.46
53.2355;-317.69;-333.33
53.2551;-319.65;-335.29
53.2746;-321.60;-333.33
53.2942;-323.56;-292.28
53.3137;-325.51;-300.10
53.3333;-327.47;-341.15
53.3528;-329.42;-339.20
53.3724;-331.38;-300.10
53.3919;-333.33;-305.96
53.4115;-335.29;-348.97
53.4310;-337.24;-350.93
53.4506;-339.20;-307.92
53.4701;-341.15;-358.75
53.4897;-343.11;-354.84
53.5092;-345.06;-311.83
53.5288;-347.02;-315.74
53.5483;-348.97;-364.61
53.5679;-350.93;-362.66
53.5874;-352.88;-362.66
53.6070;-354.84;-325.51
53.6265;-356.79;-329.42
53.6461;-358.75;-370.48
53.6656;-360.70;-325.51
53.6852;-362.66;-333.33
53.7047;-364.61;-380.25
53.7243;-366.57;-380.25
53.7438;-368.52;-376.34
53.7634;-370.48;-341.15
53.7829;-372.43;-388.07
53.8025;-374.39;-384.16
53.8220;-376.34;-386.12
53.8416;-378.30;-347.02
53.8611;-380.25;-348.97
53.8807;-382.21;-395.89
53.9002;-384.16;-348.97
53.9198;-386.12;-350.93
53.9393;-388.07;-397.85
53.9589;-390.03;-401.76
53.9784;-391.98;-399.80
53.9980;-393.94;-358.75
54.0175;-395.89;-407.62
54.0371;-397.85;-411.53
54.0566;-399.80;-362.66
54.0762;-401.76;-370.48
54.0957;-403.71;-372.43
54.1153;-405.67;-417.40
54.1348;-407.62;-413.49
54.1544;-409.58;-376.34
54.1739;-411.53;-427.18
54.1935;-413.49;-425.22
54.2131;-415.44;-425.22
54.2326;-417.40;-386.12
54.2522;-419.35;-391.98
54.2717;-421.31;-431.09
54.2913;-423.26;-431.09
54.3108;-425.22;-393.94
54.3304;-427.18;-399.80
54.3499;-429.13;-438.91
54.3695;-431.09;-438.91
54.3890;-433.04;-401.76
54.4086;-435.00;-444.77
54.4281;-436.95;-446.73
54.4477;-438.91;-448.68
54.4672;-440.86;-407.62
54.4868;-442.82;-454.55
54.5063;-444.77;-452.59
54.5259;-446.73;-456.50
54.5454;-448.68;-415.44
54.5650;-450.64;-462.37
54.5845;-452.59;-462.37
54.6041;-454.55;-466.28
54.6236;-456.50;-421.31
54.6432;-458.46;-470.19
54.6627;-460.41;-468.23
54.6823;-462.37;-472.14
54.7018;-464.32;-433.04
54.7214;-466.28;-479.96
54.7409;-468.23;-478.01
54.7605;-470.19;-476.05
54.7800;-472.14;-481.92
54.7996;-474.10;-485.83
54.8191;-476.05;-485.83
54.8387;-478.01;-483.87
54.8582;-479.96;-444.77
54.8778;-481.92;-495.60
54.8973;-483.87;-491.69
54.9169;-485.83;-491.69
54.9364;-487.78;-452.59
54.9560;-489.74;-499.51
54.9755;-491.69;-499.51
54.9951;-493.65;-499.51
55.0146;-495.60;-505.38
55.0342;-497.56;-507.33
55.0537;-499.51;-505.38
55.0733;-501.47;-511.24
55.0928;-503.42;-470.19
55.1124;-505.38;-470.19
55.1319;-507.33;-519.06
55.1515;-509.29;-515.15
55.1710;-511.24;-479.96
55.1906;-513.20;-522.97
55.2101;-515.15;-521.02
55.2297;-517.11;-528.84
55.2492;-519.06;-483.87
55.2688;-521.02;-530.79
55.2883;-522.97;-532.75
55.3079;-524.93;-530.79
55.3274;-526.88;-489.74
55.3470;-528.84;-540.57
55.3665;-530.79;-536.66
55.3861;-532.75;-538.61
55.4056;-534.70;-546.43
55.4252;-536.66;-542.52
55.4447;-538.61;-546.43
55.4643;-540.57;-546.43
55.4838;-542.52;-505.38
55.5034;-544.48;-552.30
55.5229;-546.43;-554.25
55.5425;-548.39;-556.21
55.5620;-550.34;-515.15
55.5816;-552.30;-560.12
55.6011;-554.25;-562.07
55.6207;-556.21;-564.03
55.6402;-558.16;-522.97
55.6598;-560.12;-571.85
55.6793;-562.07;-569.89
55.6989;-564.03;-567.94
55.7184;-565.98;-528.84
55.7380;-567.94;-575.76
55.7575;-569.89;-573.80
55.7771;-571.85;-575.76
55.7966;-573.80;-536.66
55.8162;-575.76;-583.58
55.8357;-577.71;-581.62
55.8553;-579.67;-587.49
55.8748;-581.62;-546.43
55.8944;-583.58;-589.44
55.9139;-585.53;-591.40
55.9335;-587.49;-591.40
55.9530;-589.44;-552.30
55.9726;-591.40;-597.26
55.9921;-593.35;-599.22
56.0117;-595.31;-599.22
56.0312;-597.26;-560.12
56.0508;-599.22;-608.99
56.0703;-601.17;-605.08
56.0899;-603.13;-610.95
56.1094;-605.08;-612.90
56.1290;-607.04;-614.86
56.1485;-608.99;-612.90
56.1681;-610.95;-614.86
56.1876;-612.90;-577.71
56.2072;-614.86;-622.68
56.2267;-616.81;-624.63
56.2463;-618.77;-622.68
56.2658;-620.72;-585.53
56.2854;-622.68;-630.50
56.3049;-624.63;-630.50
56.3245;-626.59;-626.59
56.3440;-628.54;-593.35
56.3636;-630.50;-638.32
56.3831;-632.45;-634.41
56.4027;-634.41;-642.23
56.4222;-636.36;-597.26
56.4418;-638.32;-648.09
56.4613;-640.27;-646.14
56.4809;-642.23;-601.17
56.5004;-644.18;-605.08
56.5200;-646.14;-650.05
56.5395;-648.09;-650.05
56.5591;-650.05;-653.96
56.5786;-652.00;-661.78
56.5982;-653.96;-659.82
56.6177;-655.91;-659.82
56.6373;-657.87;-663.73
56.6568;-659.82;-622.68
56.6764;-661.78;-665.69
56.6959;-663.73;-667.64
56.7155;-665.69;-669.60
56.7350;-667.64;-626.59
56.7546;-669.60;-677.42
56.7741;-671.55;-679.37
56.7937;-673.51;-679.37
56.8132;-675.46;-636.36
56.8328;-677.42;-687.19
56.8523;-679.37;-683.28
56.8719;-681.33;-685.24
56.8914;-683.28;-642.23
56.9110;-685.24;-691.10
56.9305;-687.19;-691.10
56.9501;-689.15;-693.06
56.9696;-691.10;-665.69
56.9892;-693.06;-696.97
57.0087;-695.01;-696.97
57.0283;-696.97;-700.88
57.0478;-698.92;-702.83
57.0674;-700.88;-706.74
57.0869;-702.83;-706.74
57.1065;-704.79;-712.61
57.1260;-706.74;-716.52
57.1456;-708.70;-712.61
57.1651;-710.66;-712.61
57.1847;-712.61;-716.52
57.2042;-714.57;-720.43
57.2238;-716.52;-718.48
57.2434;-718.48;-726.30
57.2629;-720.43;-724.34
57.2825;-722.39;-679.37
57.3020;-724.34;-728.25
57.3216;-726.30;-730.21
57.3411;-728.25;-728.25
57.3607;-730.21;-691.10
57.3802;-732.16;-736.07
57.3998;-734.12;-738.03
57.4193;-736.07;-736.07
57.4389;-738.03;-743.89
57.4584;-739.98;-743.89
57.4780;-741.94;-743.89
57.4975;-743.89;-743.89
57.5171;-745.85;-706.74
57.5366;-747.80;-751.71
57.5562;-749.76;-755.62
57.5757;-751.71;-753.67
57.5953;-753.67;-712.61
57.6148;-755.62;-763.44
57.6344;-757.58;-759.53
57.6539;-759.53;-761.49
57.6735;-761.49;-718.48
57.6930;-763.44;-767.35
57.7126;-765.40;-771.26
57.7321;-767.35;-767.35
57.7517;-769.31;-769.31
57.7712;-771.26;-775.17
57.7908;-773.22;-775.17
57.8103;-775.17;-777.13
57.8299;-777.13;-734.12
57.8494;-779.08;-781.04
57.8690;-781.04;-784.95
57.8885;-782.99;-782.99
57.9081;-784.95;-788.86
57.9276;-786.90;-790.81
57.9472;-788.86;-792.77
57.9667;-790.81;-792.77
57.9863;-792.77;-753.67
58.0058;-794.72;-796.68
58.0254;-796.68;-798.63
58.0449;-798.63;-802.54
58.0645;-800.59;-802.54
58.0840;-802.54;-802.54
58.1036;-804.50;-808.41
58.1231;-806.45;-808.41
58.1427;-808.41;-765.40
58.1622;-810.36;-816.23
58.1818;-812.32;-816.23
58.2013;-814.27;-812.32
58.2209;-816.23;-820.14
58.2404;-818.18;-820.14
58.2600;-820.14;-820.14
58.2795;-822.09;-779.08
58.2991;-824.05;-826.00
58.3186;-826.00;-827.96
58.3382;-827.96;-826.00
58.3577;-829.91;-831.87
58.3773;-831.87;-788.86
58.3968;-833.82;-833.82
58.4164;-835.78;-839.69
58.4359;-837.73;-839.69
58.4555;-839.69;-839.69
58.4750;-841.64;-845.55
58.4946;-843.60;-845.55
58.5141;-845.55;-847.51
58.5337;-847.51;-804.50
58.5532;-849.46;-853.37
58.5728;-851.42;-853.37
58.5923;-853.37;-853.37
58.6119;-855.33;-812.32
58.6314;-857.28;-859.24
58.6510;-859.24;-863.15
58.6705;-861.19;-861.19
58.6901;-863.15;-863.15
58.7096;-865.10;-867.06
58.7292;-867.06;-865.10
58.7487;-869.01;-867.06
58.7683;-870.97;-874.88
58.7878;-872.92;-872.92
58.8074;-874.88;-876.83
58.8269;-876.83;-874.88
58.8465;-878.79;-880.74
58.8660;-880.74;-880.74
58.8856;-882.70;-882.70
58.9051;-884.65;-884.65
58.9247;-886.61;-888.56
58.9442;-888.56;-888.56
58.9638;-890.52;-890.52
58.9833;-892.47;-892.47
59.0029;-894.43;-896.38
59.0224;-896.38;-900.29
59.0420;-898.34;-896.38
59.0615;-900.29;-900.29
59.0811;-902.25;-904.20
59.1006;-904.20;-902.25
59.1202;-906.16;-910.07
59.1397;-908.11;-906.16
59.1593;-910.07;-908.11
59.1788;-912.02;-915.93
59.1984;-913.98;-919.84
59.2179;-915.93;-913.98
59.2375;-917.89;-874.88
59.2570;-919.84;-917.89
59.2766;-921.80;-921.80
59.2961;-923.75;-923.75
59.3157;-925.71;-880.74
59.3352;-927.66;-925.71
59.3548;-929.62;-929.62
59.3743;-931.57;-933.53
59.3939;-933.53;-884.65
59.4134;-935.48;-937.44
59.4330;-937.44;-941.35
59.4525;-939.39;-941.35
59.4721;-941.35;-939.39
59.4916;-943.30;-943.30
59.5112;-945.26;-945.26
59.5307;-947.21;-945.26
59.5503;-949.17;-949.17
59.5698;-951.12;-953.08
59.5894;-953.08;-953.08
59.6089;-955.03;-953.08
59.6285;-956.99;-955.03
59.6480;-958.94;-955.03
59.6676;-960.90;-958.94
59.6871;-962.85;-962.85
59.7067;-964.81;-964.81
59.7262;-966.76;-964.81
59.7458;-968.72;-966.76
59.7653;-970.67;-968.72
59.7849;-972.63;-972.63
59.8044;-974.58;-972.63
59.8240;-976.54;-974.58
59.8435;-978.49;-976.54
59.8631;-980.45;-978.49
59.8826;-982.40;-982.40
59.9022;-984.36;-982.40
59.9217;-986.31;-984.36
59.9413;-988.27;-988.27
59.9608;-990.22;-988.27
59.9804;-992.18;-994.13
59.9999;-994.13;-994.13
60.0195;-996.09;-994.13
60.0390;-998.05;-998.05
60.0586;-1000.00;-998.05
60.0781;-1000.00;-1000.00
60.0977;-998.05;-1000.00
60.1172;-996.09;-1000.00
60.1368;-994.13;-994.13
60.1563;-992.18;-996.09
60.1759;-990.22;-992.18
60.1954;-988.27;-992.18
60.2150;-986.31;-988.27
60.2346;-984.36;-986.31
60.2541;-982.40;-986.31
60.2737;-980.45;-984.36
60.2932;-978.49;-984.36
60.3128;-976.54;-978.49
60.3323;-974.58;-976.54
60.3519;-972.63;-974.58
60.3714;-970.67;-972.63
60.3910;-968.72;-970.67
60.4105;-966.76;-968.72
60.4301;-964.81;-964.81
60.4496;-962.85;-968.72
60.4692;-960.90;-966.76
60.4887;-958.94;-960.90
60.5083;-956.99;-958.94
60.5278;-955.03;-960.90
60.5474;-953.08;-956.99
60.5669;-951.12;-953.08
60.5865;-949.17;-949.17
60.6060;-947.21;-949.17
60.6256;-945.26;-945.26
60.6451;-943.30;-949.17
60.6647;-941.35;-945.26
60.6842;-939.39;-947.21
60.7038;-937.44;-941.35
60.7233;-935.48;-939.39
60.7429;-933.53;-890.52
60.7624;-931.57;-933.53
60.7820;-929.62;-931.57
60.8015;-927.66;-929.62
60.8211;-925.71;-886.61
60.8406;-923.75;-927.66
60.8602;-921.80;-923.75
60.8797;-919.84;-921.80
60.8993;-917.89;-880.74
60.9188;-915.93;-917.89
60.9384;-913.98;-921.80
60.9579;-912.02;-872.92
60.9775;-910.07;-912.02
60.9970;-908.11;-912.02
61.0166;-906.16;-908.11
61.0361;-904.20;-861.19
61.0557;-902.25;-904.20
61.0752;-900.29;-908.11
61.0948;-898.34;-902.25
61.1143;-896.38;-902.25
61.1339;-894.43;-896.38
61.1534;-892.47;-896.38
61.1730;-890.52;-896.38
61.1925;-888.56;-892.47
61.2121;-886.61;-851.42
61.2316;-884.65;-888.56
61.2512;-882.70;-882.70
61.2707;-880.74;-882.70
61.2903;-878.79;-884.65
61.3098;-876.83;-880.74
61.3294;-874.88;-878.79
61.3489;-872.92;-872.92
61.3685;-870.97;-831.87
61.3880;-869.01;-874.88
61.4076;-867.06;-870.97
61.4271;-865.10;-870.97
61.4467;-863.15;-867.06
61.4662;-861.19;-863.15
61.4858;-859.24;-867.06
61.5053;-857.28;-859.24
61.5249;-855.33;-814.27
61.5444;-853.37;-857.28
61.5640;-851.42;-853.37
61.5835;-849.46;-855.33
61.6031;-847.51;-851.42
61.6226;-845.55;-849.46
61.6422;-843.60;-849.46
61.6617;-841.64;-841.64
61.6813;-839.69;-845.55
61.7008;-837.73;-839.69
61.7204;-835.78;-839.69
61.7399;-833.82;-837.73
61.7595;-831.87;-837.73
61.7790;-829.91;-831.87
61.7986;-827.96;-833.82
61.8181;-826.00;-786.90
61.8377;-824.05;-827.96
61.8572;-822.09;-824.05
61.8768;-820.14;-826.00
61.8963;-818.18;-820.14
61.9159;-816.23;-826.00
61.9354;-814.27;-818.18
61.9550;-812.32;-816.23
61.9745;-810.36;-820.14
61.9941;-808.41;-814.27
62.0136;-806.45;-812.32
62.0332;-804.50;-812.32
62.0527;-802.54;-761.49
62.0723;-800.59;-806.45
62.0918;-798.63;-804.50
62.1114;-796.68;-800.59
62.1309;-794.72;-800.59
62.1505;-792.77;-753.67
62.1700;-790.81;-794.72
62.1896;-788.86;-792.77
62.2091;-786.90;-749.76
62.2287;-784.95;-790.81
62.2482;-782.99;-788.86
62.2678;-781.04;-786.90
62.2873;-779.08;-782.99
62.3069;-777.13;-786.90
62.3264;-775.17;-782.99
62.3460;-773.22;-779.08
62.3655;-771.26;-775.17
62.3851;-769.31;-777.13
62.4046;-767.35;-777.13
62.4242;-765.40;-769.31
62.4437;-763.44;-767.35
62.4633;-761.49;-722.39
62.4828;-759.53;-765.40
62.5024;-757.58;-763.44
62.5219;-755.62;-765.40
62.5415;-753.67;-716.52
62.5610;-751.71;-761.49
62.5806;-749.76;-755.62
62.6001;-747.80;-757.58
62.6197;-745.85;-708.70
62.6392;-743.89;-749.76
62.6588;-741.94;-747.80
62.6783;-739.98;-741.94
62.6979;-738.03;-745.85
62.7174;-736.07;-743.89
62.7370;-734.12;-739.98
62.7565;-732.16;-738.03
62.7761;-730.21;-696.97
62.7956;-728.25;-734.12
62.8152;-726.30;-730.21
62.8347;-724.34;-730.21
62.8543;-722.39;-683.28
62.8738;-720.43;-726.30
62.8934;-718.48;-728.25
62.9129;-716.52;-724.34
62.9325;-714.57;-675.46
62.9520;-712.61;-720.43
62.9716;-710.66;-718.48
62.9911;-708.70;-712.61
63.0107;-706.74;-718.48
63.0302;-704.79;-712.61
63.0498;-702.83;-710.66
63.0693;-700.88;-661.78
63.0889;-698.92;-708.70
63.1084;-696.97;-704.79
63.1280;-695.01;-702.83
63.1475;-693.06;-704.79
63.1671;-691.10;-667.64
63.1866;-689.15;-696.97
63.2062;-687.19;-695.01
63.2257;-685.24;-689.15
63.2453;-683.28;-646.14
63.2649;-681.33;-689.15
63.2844;-679.37;-687.19
63.3040;-677.42;-683.28
63.3235;-675.46;-642.23
63.3431;-673.51;-681.33
63.3626;-671.55;-679.37
63.3822;-669.60;-677.42
63.4017;-667.64;-634.41
63.4213;-665.69;-675.46
63.4408;-663.73;-669.60
63.4604;-661.78;-667.64
63.4799;-659.82;-628.54
63.4995;-657.87;-669.60
63.5190;-655.91;-665.69
63.5386;-653.96;-661.78
63.5581;-652.00;-659.82
63.5777;-650.05;-657.87
63.5972;-648.09;-653.96
63.6168;-646.14;-655.91
63.6363;-644.18;-607.04
63.6559;-642.23;-652.00
63.6754;-640.27;-648.09
63.6950;-638.32;-646.14
63.7145;-636.36;-601.17
63.7341;-634.41;-644.18
63.7536;-632.45;-640.27
63.7732;-630.50;-638.32
63.7927;-628.54;-597.26
63.8123;-626.59;-638.32
63.8318;-624.63;-632.45
63.8514;-622.68;-632.45
63.8709;-620.72;-589.44
63.8905;-618.77;-630.50
63.9100;-616.81;-626.59
63.9296;-614.86;-620.72
63.9491;-612.90;-624.63
63.9687;-610.95;-620.72
63.9882;-608.99;-616.81
64.0078;-607.04;-612.90
64.0273;-605.08;-616.81
64.0469;-603.13;-612.90
64.0664;-601.17;-612.90
64.0860;-599.22;-564.03
64.1055;-597.26;-564.03
64.1251;-595.31;-605.08
64.1446;-593.35;-605.08
64.1642;-591.40;-601.17
64.1838;-589.44;-556.21
64.2033;-587.49;-597.26
64.2229;-585.53;-595.31
64.2424;-583.58;-589.44
64.2620;-581.62;-550.34
64.2815;-579.67;-591.40
64.3011;-577.71;-589.44
64.3206;-575.76;-581.62
64.3402;-573.80;-583.58
64.3597;-571.85;-583.58
64.3793;-569.89;-579.67
64.3989;-567.94;-575.76
64.4184;-565.98;-536.66
64.4380;-564.03;-575.76
64.4575;-562.07;-569.89
64.4771;-560.12;-567.94
64.4966;-558.16;-522.97
64.5162;-556.21;-526.88
64.5357;-554.25;-564.03
64.5553;-552.30;-562.07
64.5748;-550.34;-521.02
64.5944;-548.39;-560.12
64.6139;-546.43;-554.25
64.6335;-544.48;-552.30
64.6531;-542.52;-552.30
64.6726;-540.57;-550.34
64.6922;-538.61;-552.30
64.7117;-536.66;-548.39
64.7313;-534.70;-503.42
64.7508;-532.75;-546.43
64.7704;-530.79;-540.57
64.7899;-528.84;-538.61
64.8095;-526.88;-538.61
64.8290;-524.93;-538.61
64.8486;-522.97;-534.70
64.8682;-521.02;-528.84
64.8877;-519.06;-483.87
64.9073;-517.11;-528.84
64.9268;-515.15;-526.88
64.9464;-513.20;-522.97
64.9659;-511.24;-478.01
64.9855;-509.29;-521.02
65.0050;-507.33;-515.15
65.0246;-505.38;-515.15
65.0441;-503.42;-472.14
65.0637;-501.47;-515.15
65.0832;-499.51;-513.20
65.1028;-497.56;-505.38
65.1224;-495.60;-462.37
65.1419;-493.65;-507.33
65.1615;-491.69;-503.42
65.1810;-489.74;-499.51
65.2006;-487.78;-499.51
65.2201;-485.83;-501.47
65.2397;-483.87;-493.65
65.2592;-481.92;-491.69
65.2788;-479.96;-450.64
65.2983;-478.01;-489.74
65.3179;-476.05;-489.74
65.3375;-474.10;-483.87
65.3570;-472.14;-440.86
65.3766;-470.19;-485.83
65.3961;-468.23;-481.92
65.4157;-466.28;-476.05
65.4352;-464.32;-431.09
65.4548;-462.37;-479.96
65.4743;-460.41;-474.10
65.4939;-458.46;-470.19
65.5134;-456.50;-425.22
65.5330;-454.55;-470.19
65.5525;-452.59;-464.32
65.5721;-450.64;-458.46
65.5917;-448.68;-415.44
65.6112;-446.73;-462.37
65.6308;-444.77;-460.41
65.6503;-442.82;-452.59
65.6699;-440.86;-415.44
65.6894;-438.91;-417.40
65.7090;-436.95;-450.64
65.7285;-435.00;-442.82
65.7481;-433.04;-401.76
65.7676;-431.09;-403.71
65.7872;-429.13;-444.77
65.8068;-427.18;-436.95
65.8263;-425.22;-397.85
65.8459;-423.26;-395.89
65.8654;-421.31;-435.00
65.8850;-419.35;-427.18
65.9045;-417.40;-390.03
65.9241;-415.44;-390.03
65.9436;-413.49;-431.09
65.9632;-411.53;-423.26
65.9827;-409.58;-378.30
66.0023;-407.62;-425.22
66.0218;-405.67;-419.35
66.0414;-403.71;-415.44
66.0610;-401.76;-372.43
66.0805;-399.80;-415.44
66.1001;-397.85;-409.58
66.1196;-395.89;-407.62
66.1392;-393.94;-362.66
66.1587;-391.98;-407.62
66.1783;-390.03;-405.67
66.1978;-388.07;-399.80
66.2174;-386.12;-352.88
66.2369;-384.16;-360.70
66.2565;-382.21;-397.85
66.2761;-380.25;-393.94
66.2956;-378.30;-348.97
66.3152;-376.34;-350.93
66.3347;-374.39;-386.12
66.3543;-372.43;-388.07
66.3738;-370.48;-341.15
66.3934;-368.52;-343.11
66.4129;-366.57;-386.12
66.4325;-364.61;-378.30
66.4520;-362.66;-333.33
66.4716;-360.70;-378.30
66.4911;-358.75;-374.39
66.5107;-356.79;-372.43
66.5303;-354.84;-327.47
66.5498;-352.88;-372.43
66.5694;-350.93;-364.61
66.5889;-348.97;-358.75
66.6085;-347.02;-319.65
66.6280;-345.06;-358.75
66.6476;-343.11;-358.75
66.6671;-341.15;-356.79
66.6867;-339.20;-313.78
66.7062;-337.24;-352.88
66.7258;-335.29;-348.97
66.7453;-333.33;-348.97
66.7649;-331.38;-302.05
66.7845;-329.42;-305.96
66.8040;-327.47;-345.06
66.8236;-325.51;-339.20
66.8431;-323.56;-294.23
66.8627;-321.60;-343.11
66.8822;-319.65;-335.29
66.9018;-317.69;-329.42
66.9213;-315.74;-284.46
66.9409;-313.78;-331.38
66.9604;-311.83;-327.47
66.9800;-309.87;-278.59
66.9996;-307.92;-276.64
67.0191;-305.96;-278.59
67.0387;-304.01;-317.69
67.0582;-302.05;-272.73
67.0778;-300.10;-274.68
67.0973;-298.14;-317.69
67.1169;-296.19;-311.83
67.1364;-294.23;-309.87
67.1560;-292.28;-262.95
67.1755;-290.32;-270.77
67.1951;-288.37;-305.96
67.2146;-286.41;-300.10
67.2342;-284.46;-255.13
67.2538;-282.50;-257.09
67.2733;-280.55;-298.14
67.2929;-278.59;-296.19
67.3124;-276.64;-249.27
67.3320;-274.68;-294.23
67.3515;-272.73;-292.28
67.3711;-270.77;-288.37
67.3906;-268.82;-239.49
67.4102;-266.86;-286.41
67.4297;-264.91;-282.50
67.4493;-262.95;-278.59
67.4689;-261.00;-237.54
67.4884;-259.04;-278.59
67.5080;-257.09;-272.73
67.5275;-255.13;-270.77
67.5471;-253.18;-225.81
67.5666;-251.22;-270.77
67.5862;-249.27;-268.82
67.6057;-247.31;-264.91
67.6253;-245.36;-261.00
67.6448;-243.40;-261.00
67.6644;-241.45;-262.95
67.6839;-239.49;-255.13
67.7035;-237.54;-212.12
67.7231;-235.58;-212.12
67.7426;-233.63;-253.18
67.7622;-231.67;-249.27
67.7817;-229.72;-204.30
67.8013;-227.76;-247.31
67.8208;-225.81;-241.45
67.8404;-223.85;-196.48
67.8599;-221.90;-200.39
67.8795;-219.94;-239.49
67.8990;-217.99;-237.54
67.9186;-216.03;-231.67
67.9382;-214.08;-188.66
67.9577;-212.12;-235.58
67.9773;-210.17;-229.72
67.9968;-208.21;-223.85
68.0164;-206.26;-182.80
68.0359;-204.30;-227.76
68.0555;-202.35;-221.90
68.0750;-200.39;-176.93
68.0946;-198.44;-173.02
68.1141;-196.48;-217.99
68.1337;-194.53;-214.08
68.1532;-192.57;-210.17
68.1728;-190.62;-161.29
68.1924;-188.66;-167.16
68.2119;-186.71;-210.17
68.2315;-184.75;-202.35
68.2510;-182.80;-161.29
68.2706;-180.84;-157.38
68.2901;-178.89;-198.44
68.3097;-176.93;-194.53
68.3292;-174.98;-147.61
68.3488;-173.02;-151.52
68.3683;-171.07;-190.62
68.3879;-169.11;-188.66
68.4075;-167.16;-139.78
68.4270;-165.20;-184.75
68.4466;-163.25;-182.80
68.4661;-161.29;-178.89
68.4857;-159.34;-131.96
68.5052;-157.38;-139.78
68.5248;-155.43;-176.93
68.5443;-153.47;-173.02
68.5639;-151.52;-126.10
68.5834;-149.56;-130.01
68.6030;-147.61;-171.07
68.6225;-145.65;-161.29
68.6421;-143.70;-118.28
68.6617;-141.74;-118.28
68.6812;-139.78;-161.29
68.7008;-137.83;-112.41
68.7203;-135.87;-112.41
68.7399;-133.92;-114.37
68.7594;-131.96;-151.52
68.7790;-130.01;-149.56
68.7985;-128.05;-106.55
68.8181;-126.10;-106.55
68.8376;-124.14;-145.65
68.8572;-122.19;-143.70
68.8768;-120.23;-92.86
68.8963;-118.28;-141.74
68.9159;-116.32;-135.87
68.9354;-114.37;-90.91
68.9550;-112.41;-137.83
68.9745;-110.46;-128.05
68.9941;-108.50;-88.95
69.0136;-106.55;-128.05
69.0332;-104.59;-126.10
69.0527;-102.64;-81.13
69.0723;-100.68;-122.19
69.0918;-98.73;-120.23
69.1114;-96.77;-114.37
69.1310;-94.82;-116.32
69.1505;-92.86;-71.36
69.1701;-90.91;-110.46
69.1896;-88.95;-69.40
69.2092;-87.00;-65.49
69.2287;-85.04;-104.59
69.2483;-83.09;-61.58
69.2678;-81.13;-55.72
69.2874;-79.18;-100.68
69.3069;-77.22;-55.72
69.3265;-75.27;-49.85
69.3460;-73.31;-96.77
69.3656;-71.36;-94.82
69.3852;-69.40;-49.85
69.4047;-67.45;-43.99
69.4243;-65.49;-87.00
69.4438;-63.54;-88.95
69.4634;-61.58;-38.12
69.4829;-59.63;-36.17
69.5025;-57.67;-79.18
69.5220;-55.72;-79.18
69.5416;-53.76;-34.21
69.5611;-51.81;-28.35
69.5807;-49.85;-71.36
69.6003;-47.90;-69.40
69.6198;-45.94;-24.44
69.6394;-43.99;-18.57
69.6589;-42.03;-59.63
69.6785;-40.08;-61.58
69.6980;-38.12;-20.53
69.7176;-36.17;-10.75
69.7371;-34.21;-55.72
69.7567;-32.26;-57.67
69.7762;-30.30;-12.71
69.7958;-28.35;-4.89
69.8153;-26.39;-2.93
69.8349;-24.44;0.98
69.8545;-22.48;-2.93
69.8740;-20.53;-4.89
69.8936;-18.57;-0.98
69.9131;-16.62;6.84
69.9327;-14.66;-40.08
69.9522;-12.71;8.80
69.9718;-10.75;-34.21
69.9913;-8.80;16.62
70.0109;-6.84;12.71
70.0304;-4.89;-28.35
70.0500;-2.93;-24.44
70.0696;-0.98;-26.39
70.0891;0.98;-24.44
70.1087;2.93;-16.62
70.1282;4.89;30.30
70.1478;6.84;-18.57
70.1673;8.80;-14.66
70.1869;10.75;28.35
70.2064;12.71;-10.75
70.2260;14.66;-8.80
70.2455;16.62;-2.93
70.2651;18.57;42.03
70.2846;20.53;42.03
70.3042;22.48;0.98
70.3238;24.44;45.94
70.3433;26.39;45.94
70.3629;28.35;0.98
70.3824;30.30;51.81
70.4020;32.26;8.80
70.4215;34.21;14.66
70.4411;36.17;55.72
70.4606;38.12;55.72
70.4802;40.08;16.62
70.4997;42.03;67.45
70.5193;43.99;65.49
70.5389;45.94;65.49
70.5584;47.90;24.44
70.5780;49.85;71.36
70.5975;51.81;69.40
70.6171;53.76;71.36
70.6366;55.72;30.30
70.6562;57.67;38.12
70.6757;59.63;79.18
70.6953;61.58;77.22
70.7148;63.54;38.12
70.7344;65.49;43.99
70.7539;67.45;88.95
70.7735;69.40;87.00
70.7931;71.36;88.95
70.8126;73.31;51.81
70.8322;75.27;98.73
70.8517;77.22;94.82
70.8713;79.18;51.81
70.8908;81.13;61.58
70.9104;83.09;102.64
70.9299;85.04;104.59
70.9495;87.00;104.59
70.9690;88.95;108.50
70.9886;90.91;110.46
71.0082;92.86;112.41
71.0277;94.82;112.41
71.0473;96.77;116.32
71.0668;98.73;116.32
71.0864;100.68;116.32
71.1059;102.64;118.28
71.1255;104.59;83.09
71.1450;106.55;83.09
71.1646;108.50;130.01
71.1841;110.46;81.13
71.2037;112.41;88.95
71.2232;114.37;87.00
71.2428;116.32;88.95
71.2624;118.28;88.95
71.2819;120.23;92.86
71.3015;122.19;92.86
71.3210;124.14;96.77
71.3406;126.10;98.73
71.3601;128.05;104.59
71.3797;130.01;143.70
71.3992;131.96;151.52
71.4188;133.92;112.41
71.4383;135.87;110.46
71.4579;137.83;155.43
71.4775;139.78;159.34
71.4970;141.74;159.34
71.5166;143.70;114.37
71.5361;145.65;159.34
71.5557;147.61;167.16
71.5752;149.56;169.11
71.5948;151.52;126.10
71.6143;153.47;169.11
71.6339;155.43;173.02
71.6534;157.38;131.96
71.6730;159.34;131.96
71.6925;161.29;176.93
71.7121;163.25;182.80
71.7317;165.20;182.80
71.7512;167.16;182.80
71.7708;169.11;182.80
71.7903;171.07;186.71
71.8099;173.02;192.57
71.8294;174.98;147.61
71.8490;176.93;147.61
71.8685;178.89;194.53
71.8881;180.84;157.38
71.9076;182.80;155.43
71.9272;184.75;198.44
71.9468;186.71;206.26
71.9663;188.66;208.21
71.9859;190.62;161.29
72.0054;192.57;204.30
72.0250;194.53;210.17
72.0445;196.48;214.08
72.0641;198.44;171.07
72.0836;200.39;214.08
72.1032;202.35;217.99
72.1227;204.30;225.81
72.1423;206.26;176.93
72.1618;208.21;221.90
72.1814;210.17;225.81
72.2010;212.12;231.67
72.2205;214.08;188.66
72.2401;216.03;227.76
72.2596;217.99;235.58
72.2792;219.94;194.53
72.2987;221.90;192.57
72.3183;223.85;239.49
72.3378;225.81;243.40
72.3574;227.76;204.30
72.3769;229.72;200.39
72.3965;231.67;245.36
72.4160;233.63;249.27
72.4356;235.58;255.13
72.4552;237.54;206.26
72.4747;239.49;253.18
72.4943;241.45;257.09
72.5138;243.40;262.95
72.5334;245.36;214.08
72.5529;247.31;261.00
72.5725;249.27;266.86
72.5920;251.22;270.77
72.6116;253.18;219.94
72.6311;255.13;270.77
72.6507;257.09;272.73
72.6703;259.04;278.59
72.6898;261.00;233.63
72.7094;262.95;276.64
72.7289;264.91;278.59
72.7485;266.86;286.41
72.7680;268.82;239.49
72.7876;270.77;284.46
72.8071;272.73;290.32
72.8267;274.68;249.27
72.8462;276.64;245.36
72.8658;278.59;294.23
72.8853;280.55;298.14
72.9049;282.50;300.10
72.9245;284.46;253.18
72.9440;286.41;300.10
72.9636;288.37;305.96
72.9831;290.32;264.91
73.0027;292.28;262.95
73.0222;294.23;307.92
73.0418;296.19;309.87
73.0613;298.14;270.77
73.0809;300.10;274.68
73.1004;302.05;272.73
73.1200;304.01;315.74
73.1396;305.96;274.68
73.1591;307.92;321.60
73.1787;309.87;323.56
73.1982;311.83;329.42
73.2178;313.78;288.37
73.2373;315.74;329.42
73.2569;317.69;333.33
73.2764;319.65;335.29
73.2960;321.60;337.24
73.3155;323.56;335.29
73.3351;325.51;337.24
73.3546;327.47;345.06
73.3742;329.42;302.05
73.3938;331.38;345.06
73.4133;333.33;347.02
73.4329;335.29;348.97
73.4524;337.24;307.92
73.4720;339.20;309.87
73.4915;341.15;352.88
73.5111;343.11;360.70
73.5306;345.06;358.75
73.5502;347.02;317.69
73.5697;348.97;362.66
73.5893;350.93;364.61
73.6089;352.88;325.51
73.6284;354.84;364.61
73.6480;356.79;368.52
73.6675;358.75;370.48
73.6871;360.70;378.30
73.7066;362.66;372.43
73.7262;364.61;378.30
73.7457;366.57;378.30
73.7653;368.52;341.15
73.7848;370.48;339.20
73.8044;372.43;386.12
73.8239;374.39;390.03
73.8435;376.34;348.97
73.8631;378.30;390.03
73.8826;380.25;391.98
73.9022;382.21;397.85
73.9217;384.16;354.84
73.9413;386.12;395.89
73.9608;388.07;399.80
73.9804;390.03;403.71
73.9999;391.98;405.67
74.0195;393.94;362.66
74.0390;395.89;405.67
74.0586;397.85;413.49
74.0782;399.80;417.40
74.0977;401.76;368.52
74.1173;403.71;415.44
74.1368;405.67;419.35
74.1564;407.62;374.39
74.1759;409.58;417.40
74.1955;411.53;421.31
74.2150;413.49;427.17
74.2346;415.44;388.07
74.2541;417.40;425.22
74.2737;419.35;431.09
74.2932;421.31;435.00
74.3128;423.26;390.03
74.3324;425.22;435.00
74.3519;427.17;436.95
74.3715;429.13;440.86
74.3910;431.09;401.76
74.4106;433.04;442.82
74.4301;435.00;444.77
74.4497;436.95;448.68
74.4692;438.91;409.58
74.4888;440.86;407.62
74.5083;442.82;454.55
74.5279;444.77;458.46
74.5475;446.73;415.44
74.5670;448.68;415.44
74.5866;450.64;462.37
74.6061;452.59;466.28
74.6257;454.55;423.26
74.6452;456.50;423.26
74.6648;458.46;468.23
74.6843;460.41;470.19
74.7039;462.37;431.09
74.7234;464.32;470.19
74.7430;466.28;476.05
74.7625;468.23;481.92
74.7821;470.19;438.91
74.8017;472.14;479.96
74.8212;474.10;483.87
74.8408;476.05;483.87
74.8603;478.01;491.69
74.8799;479.96;444.77
74.8994;481.92;489.74
74.9190;483.87;495.60
74.9385;485.83;454.55
74.9581;487.78;495.60
74.9776;489.74;499.51
74.9972;491.69;499.51
75.0167;493.65;460.41
75.0363;495.60;460.41
75.0559;497.56;507.33
75.0754;499.51;509.29
75.0950;501.47;515.15
75.1145;503.42;511.24
75.1341;505.38;517.11
75.1536;507.33;515.15
75.1732;509.29;478.01
75.1927;511.24;519.06
75.2123;513.20;524.93
75.2318;515.15;528.84
75.2514;517.11;479.96
75.2710;519.06;483.87
75.2905;521.02;530.79
75.3101;522.97;534.70
75.3296;524.93;491.69
75.3492;526.88;532.75
75.3687;528.84;538.61
75.3883;530.79;542.52
75.4078;532.75;544.48
75.4274;534.70;499.51
75.4469;536.66;546.43
75.4665;538.61;550.34
75.4860;540.57;550.34
75.5056;542.52;505.38
75.5252;544.48;552.30
75.5447;546.43;558.16
75.5643;548.39;515.15
75.5838;550.34;513.20
75.6034;552.30;558.16
75.6229;554.25;564.03
75.6425;556.21;519.06
75.6620;558.16;565.98
75.6816;560.12;567.94
75.7011;562.07;571.85
75.7207;564.03;575.76
75.7403;565.98;575.76
75.7598;567.94;575.76
75.7794;569.89;579.67
75.7989;571.85;581.62
75.8185;573.80;581.62
75.8380;575.76;583.58
75.8576;577.71;587.49
75.8771;579.67;544.48
75.8967;581.62;589.44
75.9162;583.58;593.35
75.9358;585.53;593.35
75.9553;587.49;550.34
75.9749;589.44;593.35
75.9945;591.40;599.22
76.0140;593.35;601.17
76.0336;595.31;560.12
76.0531;597.26;603.13
76.0727;599.22;605.08
76.0922;601.17;610.95
76.1118;603.13;607.04
76.1313;605.08;610.95
76.1509;607.04;614.86
76.1704;608.99;614.86
76.1900;610.95;620.72
76.2096;612.90;618.77
76.2291;614.86;622.68
76.2487;616.81;624.63
76.2682;618.77;581.62
76.2878;620.72;626.59
76.3073;622.68;630.50
76.3269;624.63;634.41
76.3464;626.59;589.44
76.3660;628.54;632.45
76.3855;630.50;638.32
76.4051;632.45;640.27
76.4246;634.41;599.22
76.4442;636.36;642.23
76.4638;638.32;644.18
76.4833;640.27;646.14
76.5029;642.23;652.00
76.5224;644.18;646.14
76.5420;646.14;652.00
76.5615;648.09;657.87
76.5811;650.05;659.82
76.6006;652.00;661.78
76.6202;653.96;659.82
76.6397;655.91;665.69
76.6593;657.87;618.77
76.6789;659.82;663.73
76.6984;661.78;667.64
76.7180;663.73;669.60
76.7375;665.69;673.51
76.7571;667.64;673.51
76.7766;669.60;675.46
76.7962;671.55;677.42
76.8157;673.51;634.41
76.8353;675.46;681.33
76.8548;677.42;683.28
76.8744;679.37;687.19
76.8939;681.33;685.24
76.9135;683.28;687.19
76.9331;685.24;691.10
76.9526;687.19;691.10
76.9722;689.15;650.05
76.9917;691.10;695.01
77.0113;693.06;696.97
77.0308;695.01;698.92
77.0504;696.97;704.79
77.0699;698.92;700.88
77.0895;700.88;706.74
77.1090;702.83;706.74
77.1286;704.79;667.64
77.1482;706.74;710.65
77.1677;708.70;712.61
77.1873;710.65;716.52
77.2068;712.61;720.43
77.2264;714.57;720.43
77.2459;716.52;720.43
77.2655;718.48;724.34
77.2850;720.43;726.30
77.3046;722.39;724.34
77.3241;724.34;728.25
77.3437;726.30;732.16
77.3632;728.25;732.16
77.3828;730.21;734.12
77.4024;732.16;738.03
77.4219;734.12;739.98
77.4415;736.07;741.94
77.4610;738.03;741.94
77.4806;739.98;745.85
77.5001;741.94;743.89
77.5197;743.89;747.80
77.5392;745.85;747.80
77.5588;747.80;749.76
77.5783;749.76;755.62
77.5979;751.71;757.58
77.6175;753.67;757.58
77.6370;755.62;759.53
77.6566;757.58;763.44
77.6761;759.53;720.43
77.6957;761.49;765.40
77.7152;763.44;767.35
77.7348;765.40;769.31
77.7543;767.35;728.25
77.7739;769.31;771.26
77.7934;771.26;775.17
77.8130;773.22;777.13
77.8325;775.17;736.07
77.8521;777.13;779.08
77.8717;779.08;782.99
77.8912;781.04;786.90
77.9108;782.99;786.90
77.9303;784.95;786.90
77.9499;786.90;790.81
77.9694;788.86;794.72
77.9890;790.81;792.77
78.0085;792.77;796.68
78.0281;794.72;798.63
78.0476;796.68;798.63
78.0672;798.63;755.62
78.0867;800.59;800.59
78.1063;802.54;806.45
78.1259;804.50;808.41
78.1454;806.45;810.36
78.1650;808.41;810.36
78.1845;810.36;812.32
78.2041;812.32;816.23
78.2236;814.27;822.09
78.2432;816.23;820.14
78.2627;818.18;820.14
78.2823;820.14;827.96
78.3018;822.09;824.05
78.3214;824.05;826.00
78.3410;826.00;826.00
78.3605;827.96;831.87
78.3801;829.91;833.82
78.3996;831.87;833.82
78.4192;833.82;837.73
78.4387;835.78;837.73
78.4583;837.73;841.64
78.4778;839.69;841.64
78.4974;841.64;841.64
78.5169;843.60;845.55
78.5365;845.55;847.51
78.5560;847.51;849.46
78.5756;849.46;851.42
78.5952;851.42;851.42
78.6147;853.37;853.37
78.6343;855.33;855.33
78.6538;857.28;859.24
78.6734;859.24;863.15
78.6929;861.19;863.15
78.7125;863.15;863.15
78.7320;865.10;867.06
78.7516;867.06;870.97
78.7711;869.01;870.97
78.7907;870.97;872.92
78.8103;872.92;874.88
78.8298;874.88;876.83
78.8494;876.83;878.79
78.8689;878.79;880.74
78.8885;880.74;880.74
78.9080;882.70;884.65
78.9276;884.65;884.65
78.9471;886.61;886.61
78.9667;888.56;888.56
78.9862;890.52;892.47
79.0058;892.47;896.38
79.0253;894.43;894.43
79.0449;896.38;896.38
79.0645;898.34;898.34
79.0840;900.29;902.25
79.1036;902.25;902.25
79.1231;904.20;906.16
79.1427;906.16;910.07
79.1622;908.11;908.11
79.1818;910.07;912.02
79.2013;912.02;912.02
79.2209;913.98;913.98
79.2404;915.93;917.89
79.2600;917.89;917.89
79.2796;919.84;921.80
79.2991;921.80;921.80
79.3187;923.75;923.75
79.3382;925.71;927.66
79.3578;927.66;929.62
79.3773;929.62;929.62
79.3969;931.57;931.57
79.4164;933.53;935.48
79.4360;935.48;935.48
79.4555;937.44;937.44
79.4751;939.39;939.39
79.4946;941.35;941.35
79.5142;943.30;943.30
79.5338;945.26;947.21
79.5533;947.21;947.21
79.5729;949.17;949.17
79.5924;951.12;953.08
79.6120;953.08;953.08
79.6315;955.03;953.08
79.6511;956.99;955.03
79.6706;958.94;958.94
79.6902;960.90;962.85
79.7097;962.85;964.81
79.7293;964.81;964.81
79.7489;966.76;966.76
79.7684;968.72;968.72
79.7880;970.67;970.67
79.8075;972.63;972.63
79.8271;974.58;974.58
79.8466;976.54;976.54
79.8662;978.49;978.49
79.8857;980.45;980.45
79.9053;982.40;984.36
79.9248;984.36;984.36
79.9444;986.31;986.31
79.9639;988.27;988.27
79.9835;990.22;990.22
80.0031;992.18;992.18
80.0226;994.13;994.13
80.0422;996.09;998.04
80.0617;998.04;998.04
80.0813;1000.00;1000.00

Acquisition complétée
