=~=~=~=~=~=~=~=~=~=~=~= PuTTY log 2025.03.26 20:04:45 =~=~=~=~=~=~=~=~=~=~=~=
Choisissez la methode :
1 - Chronoamperometrie
2 - Voltammetrie cyclique
Entree invalide. Veuillez choisir 1 ou 2.
Methode selectionnee : Voltammetrie cyclique
Entrez E1 (en Volts) :
Entrez E2 (en Volts) :
Entrez la vitesse de balayage (en V/s) :
Entrez le nombre de cycles :
Parametres enregistres.
E1 = -0.50 V, E2 = 0.50 V, Vitesse = 0.10 V/s
Cycles = 2.00
Entrez le facteur d'affichage (valeur par défaut = 1, valeur utilisée pour les mesures = 4) :
Facteur d'affichage choisi : 1
Entrez 'ok' pour commencer l'expérience.
Veuillez entrer 'ok' pour commencer l'expérience.
Debut
Temps (s) tension_theo (mV) tension_exp (mV)
0.0196;501.47;671.55
0.0391;499.51;517.11
0.0587;497.56;517.11
0.0782;495.60;511.24
0.0978;493.65;513.20
0.1173;491.69;509.29
0.1369;489.74;509.29
0.1564;487.78;505.38
0.1760;485.83;503.42
0.1955;483.87;501.47
0.2151;481.92;499.51
0.2346;479.96;499.51
0.2542;478.01;497.56
0.2737;476.05;495.60
0.2933;474.10;493.65
0.3128;472.14;491.69
0.3324;470.19;489.74
0.3519;468.23;485.83
0.3715;466.28;485.83
0.3910;464.32;483.87
0.4106;462.37;481.92
0.4301;460.41;479.96
0.4497;458.46;478.01
0.4692;456.50;474.10
0.4888;454.55;474.10
0.5083;452.59;470.19
0.5279;450.64;470.19
0.5474;448.68;468.23
0.5670;446.73;466.28
0.5865;444.77;462.37
0.6061;442.82;460.41
0.6256;440.86;462.37
0.6452;438.91;458.46
0.6647;436.95;456.50
0.6843;435.00;456.50
0.7038;433.04;452.59
0.7234;431.09;450.64
0.7429;429.13;448.68
0.7625;427.17;446.73
0.7820;425.22;444.77
0.8016;423.26;442.82
0.8211;421.31;440.86
0.8407;419.35;438.91
0.8602;417.40;435.00
0.8798;415.44;436.95
0.8993;413.49;435.00
0.9189;411.53;431.09
0.9384;409.58;431.09
0.9580;407.62;429.13
0.9775;405.67;425.22
0.9971;403.71;425.22
1.0166;401.76;421.31
1.0362;399.80;419.35
1.0557;397.85;417.40
1.0753;395.89;417.40
1.0948;393.94;415.44
1.1144;391.98;413.49
1.1339;390.03;413.49
1.1535;388.07;411.53
1.1730;386.12;407.62
1.1926;384.16;407.62
1.2121;382.21;403.71
1.2317;380.25;401.76
1.2512;378.30;399.80
1.2708;376.34;399.80
1.2903;374.39;395.89
1.3099;372.43;393.94
1.3294;370.48;393.94
1.3490;368.52;390.03
1.3685;366.57;388.07
1.3881;364.61;386.12
1.4076;362.66;386.12
1.4272;360.70;382.21
1.4467;358.75;380.25
1.4663;356.79;380.25
1.4858;354.84;376.34
1.5054;352.88;374.39
1.5249;350.93;374.39
1.5445;348.97;370.48
1.5640;347.02;368.52
1.5836;345.06;370.48
1.6031;343.11;366.57
1.6227;341.15;366.57
1.6422;339.20;362.66
1.6618;337.24;360.70
1.6813;335.29;358.75
1.7009;333.33;354.84
1.7204;331.38;354.84
1.7400;329.42;350.93
1.7595;327.47;350.93
1.7791;325.51;352.88
1.7986;323.56;345.06
1.8182;321.60;347.02
1.8377;319.65;345.06
1.8573;317.69;341.15
1.8768;315.74;339.20
1.8964;313.78;337.24
1.9159;311.83;335.29
1.9355;309.87;333.33
1.9550;307.92;331.38
1.9746;305.96;331.38
1.9941;304.01;329.42
2.0137;302.05;325.51
2.0332;300.10;323.56
2.0528;298.14;323.56
2.0723;296.19;319.65
2.0919;294.23;319.65
2.1114;292.28;315.74
2.1310;290.32;315.74
2.1505;288.37;309.87
2.1701;286.41;311.83
2.1896;284.46;307.92
2.2092;282.50;307.92
2.2287;280.55;304.01
2.2483;278.59;304.01
2.2678;276.64;302.05
2.2874;274.68;302.05
2.3069;272.73;298.14
2.3265;270.77;296.19
2.3460;268.82;294.23
2.3656;266.86;292.28
2.3851;264.91;288.37
2.4047;262.95;286.41
2.4242;261.00;284.46
2.4438;259.04;284.46
2.4633;257.09;282.50
2.4829;255.13;280.55
2.5024;253.18;276.64
2.5220;251.22;276.64
2.5415;249.27;274.68
2.5611;247.31;272.73
2.5806;245.36;270.77
2.6002;243.40;204.30
2.6197;241.45;266.86
2.6393;239.49;264.91
2.6588;237.54;262.95
2.6784;235.58;261.00
2.6979;233.63;255.13
2.7175;231.67;255.13
2.7370;229.72;255.13
2.7566;227.76;253.18
2.7761;225.81;249.27
2.7957;223.85;249.27
2.8152;221.90;245.36
2.8348;219.94;245.36
2.8543;217.99;239.49
2.8739;216.03;239.49
2.8934;214.08;237.54
2.9130;212.12;239.49
2.9325;210.17;235.58
2.9521;208.21;233.63
2.9716;206.26;231.67
2.9912;204.30;229.72
3.0108;202.35;225.81
3.0303;200.39;223.85
3.0499;198.44;221.90
3.0694;196.48;219.94
3.0890;194.53;217.99
3.1085;192.57;217.99
3.1281;190.62;217.99
3.1476;188.66;216.03
3.1672;186.71;212.12
3.1867;184.75;212.12
3.2063;182.80;208.21
3.2258;180.84;206.26
3.2454;178.89;206.26
3.2649;176.93;202.35
3.2845;174.98;202.35
3.3040;173.02;135.87
3.3236;171.07;196.48
3.3431;169.11;196.48
3.3627;167.16;196.48
3.3822;165.20;190.62
3.4018;163.25;190.62
3.4213;161.29;186.71
3.4409;159.34;186.71
3.4604;157.38;182.80
3.4800;155.43;178.89
3.4995;153.47;180.84
3.5191;151.52;180.84
3.5386;149.56;176.93
3.5582;147.61;176.93
3.5777;145.65;171.07
3.5973;143.70;171.07
3.6168;141.74;169.11
3.6364;139.78;167.16
3.6559;137.83;165.20
3.6755;135.87;163.25
3.6950;133.92;161.29
3.7146;131.96;159.34
3.7341;130.01;157.38
3.7537;128.05;153.47
3.7732;126.10;155.43
3.7928;124.14;151.52
3.8123;122.19;149.56
3.8319;120.23;149.56
3.8514;118.28;143.70
3.8710;116.32;143.70
3.8905;114.37;141.74
3.9101;112.41;139.78
3.9296;110.46;139.78
3.9492;108.50;135.87
3.9687;106.55;133.92
3.9883;104.59;133.92
4.0078;102.64;130.01
4.0274;100.68;128.05
4.0469;98.73;130.01
4.0665;96.77;122.19
4.0860;94.82;61.58
4.1056;92.86;122.19
4.1251;90.91;120.23
4.1447;88.95;53.76
4.1642;87.00;118.28
4.1838;85.04;108.50
4.2033;83.09;51.81
4.2229;81.13;114.37
4.2424;79.18;108.50
4.2620;77.22;43.99
4.2815;75.27;108.50
4.3011;73.31;102.64
4.3206;71.36;40.08
4.3402;69.40;100.68
4.3597;67.45;96.77
4.3793;65.49;36.17
4.3988;63.54;90.91
4.4184;61.58;34.21
4.4379;59.63;87.00
4.4575;57.67;30.30
4.4770;55.72;85.04
4.4966;53.76;24.44
4.5161;51.81;83.09
4.5357;49.85;20.53
4.5552;47.90;14.66
4.5748;45.94;18.57
4.5943;43.99;73.31
4.6139;42.03;77.22
4.6334;40.08;6.84
4.6530;38.12;71.36
4.6725;36.17;4.89
4.6921;34.21;63.54
4.7116;32.26;2.93
4.7312;30.30;-0.98
4.7507;28.35;63.54
4.7703;26.39;-2.93
4.7898;24.44;55.72
4.8094;22.48;-8.80
4.8289;20.53;55.72
4.8485;18.57;-12.71
4.8680;16.62;51.81
4.8876;14.66;45.94
4.9071;12.71;-14.66
4.9267;10.75;45.94
4.9462;8.80;40.08
4.9658;6.84;43.99
4.9853;4.89;-20.53
5.0049;2.93;-30.30
5.0244;0.98;38.12
5.0440;-0.98;-28.35
5.0635;-2.93;-32.26
5.0831;-4.89;32.26
5.1026;-6.84;-38.12
5.1222;-8.80;-38.12
5.1417;-10.75;22.48
5.1613;-12.71;18.57
5.1808;-14.66;-40.08
5.2004;-16.62;-42.03
5.2199;-18.57;-43.99
5.2395;-20.53;-49.85
5.2590;-22.48;-47.90
5.2786;-24.44;-51.81
5.2981;-26.39;-53.76
5.3177;-28.35;-55.72
5.3372;-30.30;-55.72
5.3568;-32.26;-59.63
5.3763;-34.21;-61.58
5.3959;-36.17;-63.54
5.4154;-38.12;-65.49
5.4350;-40.08;-4.89
5.4545;-42.03;-6.84
5.4741;-43.99;-10.75
5.4936;-45.94;-12.71
5.5132;-47.90;-16.62
5.5327;-49.85;-14.66
5.5523;-51.81;-16.62
5.5718;-53.76;-18.57
5.5914;-55.72;-20.53
5.6109;-57.67;-24.44
5.6305;-59.63;-30.30
5.6500;-61.58;-90.91
5.6696;-63.54;-28.35
5.6891;-65.49;-28.35
5.7087;-67.45;-32.26
5.7282;-69.40;-38.12
5.7478;-71.36;-38.12
5.7673;-73.31;-40.08
5.7869;-75.27;-42.03
5.8064;-77.22;-47.90
5.8260;-79.18;-47.90
5.8455;-81.13;-47.90
5.8651;-83.09;-47.90
5.8846;-85.04;-53.76
5.9042;-87.00;-116.32
5.9237;-88.95;-49.85
5.9433;-90.91;-51.81
5.9628;-92.86;-55.72
5.9824;-94.82;-55.72
6.0020;-96.77;-61.58
6.0215;-98.73;-59.63
6.0411;-100.68;-69.40
6.0606;-102.64;-67.45
6.0802;-104.59;-63.54
6.0997;-106.55;-131.96
6.1193;-108.50;-69.40
6.1388;-110.46;-133.92
6.1584;-112.41;-77.22
6.1779;-114.37;-77.22
6.1975;-116.32;-139.78
6.2170;-118.28;-83.09
6.2366;-120.23;-79.18
6.2561;-122.19;-145.65
6.2757;-124.14;-88.95
6.2952;-126.10;-88.95
6.3148;-128.05;-153.47
6.3343;-130.01;-96.77
6.3539;-131.96;-92.86
6.3734;-133.92;-157.38
6.3930;-135.87;-102.64
6.4125;-137.83;-163.25
6.4321;-139.78;-102.64
6.4516;-141.74;-163.25
6.4712;-143.70;-106.55
6.4907;-145.65;-167.16
6.5103;-147.61;-110.46
6.5298;-149.56;-171.07
6.5494;-151.52;-114.37
6.5689;-153.47;-176.93
6.5885;-155.43;-118.28
6.6080;-157.38;-114.37
6.6276;-159.34;-122.19
6.6471;-161.29;-186.71
6.6667;-163.25;-128.05
6.6862;-165.20;-186.71
6.7058;-167.16;-128.05
6.7253;-169.11;-192.57
6.7449;-171.07;-139.78
6.7644;-173.02;-194.53
6.7840;-174.98;-145.65
6.8035;-176.93;-200.39
6.8231;-178.89;-141.74
6.8426;-180.84;-202.35
6.8622;-182.80;-161.29
6.8817;-184.75;-206.26
6.9013;-186.71;-174.98
6.9208;-188.66;-210.17
6.9404;-190.62;-194.53
6.9599;-192.57;-214.08
6.9795;-194.53;-221.90
6.9990;-196.48;-153.47
7.0186;-198.44;-225.81
7.0381;-200.39;-221.90
7.0577;-202.35;-227.76
7.0772;-204.30;-163.25
7.0968;-206.26;-231.67
7.1163;-208.21;-231.67
7.1359;-210.17;-167.16
7.1554;-212.12;-233.63
7.1750;-214.08;-237.54
7.1945;-216.03;-235.58
7.2141;-217.99;-178.89
7.2336;-219.94;-245.36
7.2532;-221.90;-249.27
7.2727;-223.85;-243.40
7.2923;-225.81;-186.71
7.3118;-227.76;-251.22
7.3314;-229.72;-188.66
7.3509;-231.67;-253.18
7.3705;-233.63;-259.04
7.3900;-235.58;-190.62
7.4096;-237.54;-262.95
7.4291;-239.49;-262.95
7.4487;-241.45;-266.86
7.4682;-243.40;-198.44
7.4878;-245.36;-270.77
7.5073;-247.31;-266.86
7.5269;-249.27;-274.68
7.5464;-251.22;-270.77
7.5660;-253.18;-278.59
7.5855;-255.13;-272.73
7.6051;-257.09;-280.55
7.6246;-259.04;-276.64
7.6442;-261.00;-284.46
7.6637;-262.95;-284.46
7.6833;-264.91;-221.90
7.7028;-266.86;-223.85
7.7224;-268.82;-225.81
7.7419;-270.77;-290.32
7.7615;-272.73;-229.72
7.7810;-274.68;-294.23
7.8006;-276.64;-298.14
7.8201;-278.59;-298.14
7.8397;-280.55;-237.54
7.8592;-282.50;-302.05
7.8788;-284.46;-307.92
7.8983;-286.41;-305.96
7.9179;-288.37;-247.31
7.9374;-290.32;-309.87
7.9570;-292.28;-315.74
7.9765;-294.23;-313.78
7.9961;-296.19;-317.69
8.0156;-298.14;-317.69
8.0352;-300.10;-323.56
8.0547;-302.05;-321.60
8.0743;-304.01;-329.42
8.0938;-305.96;-323.56
8.1134;-307.92;-262.95
8.1329;-309.87;-329.42
8.1525;-311.83;-268.82
8.1720;-313.78;-331.38
8.1916;-315.74;-270.77
8.2111;-317.69;-335.29
8.2307;-319.65;-343.11
8.2502;-321.60;-272.73
8.2698;-323.56;-280.55
8.2893;-325.51;-345.06
8.3089;-327.47;-350.93
8.3284;-329.42;-347.02
8.3480;-331.38;-352.88
8.3675;-333.33;-352.88
8.3871;-335.29;-292.28
8.4066;-337.24;-356.79
8.4262;-339.20;-362.66
8.4457;-341.15;-358.75
8.4653;-343.11;-298.14
8.4848;-345.06;-364.61
8.5044;-347.02;-368.52
8.5239;-348.97;-366.57
8.5435;-350.93;-305.96
8.5630;-352.88;-370.48
8.5826;-354.84;-309.87
8.6021;-356.79;-372.43
8.6217;-358.75;-313.78
8.6412;-360.70;-376.34
8.6608;-362.66;-388.07
8.6803;-364.61;-384.16
8.6999;-366.57;-388.07
8.7194;-368.52;-384.16
8.7390;-370.48;-391.98
8.7585;-372.43;-390.03
8.7781;-374.39;-329.42
8.7976;-376.34;-391.98
8.8172;-378.30;-399.80
8.8367;-380.25;-397.85
8.8563;-382.21;-335.29
8.8758;-384.16;-401.76
8.8954;-386.12;-341.15
8.9149;-388.07;-403.71
8.9345;-390.03;-409.58
8.9540;-391.98;-339.20
8.9736;-393.94;-348.97
8.9931;-395.89;-411.53
9.0127;-397.85;-352.88
9.0322;-399.80;-413.49
9.0518;-401.76;-421.31
9.0714;-403.71;-421.31
9.0909;-405.67;-423.26
9.1105;-407.62;-425.22
9.1300;-409.58;-427.18
9.1496;-411.53;-429.13
9.1691;-413.49;-366.57
9.1887;-415.44;-431.09
9.2082;-417.40;-436.95
9.2278;-419.35;-436.95
9.2473;-421.31;-378.30
9.2669;-423.26;-438.91
9.2864;-425.22;-386.12
9.3060;-427.18;-440.86
9.3255;-429.13;-393.94
9.3451;-431.09;-448.68
9.3646;-433.04;-450.64
9.3842;-435.00;-448.68
9.4037;-436.95;-454.55
9.4233;-438.91;-452.59
9.4428;-440.86;-458.46
9.4624;-442.82;-456.50
9.4819;-444.77;-464.32
9.5015;-446.73;-462.37
9.5210;-448.68;-468.23
9.5406;-450.64;-464.32
9.5601;-452.59;-470.19
9.5797;-454.55;-468.23
9.5992;-456.50;-474.10
9.6188;-458.46;-472.14
9.6383;-460.41;-479.96
9.6579;-462.37;-476.05
9.6774;-464.32;-481.92
9.6970;-466.28;-478.01
9.7165;-468.23;-485.83
9.7361;-470.19;-483.87
9.7556;-472.14;-491.69
9.7752;-474.10;-483.87
9.7947;-476.05;-493.65
9.8143;-478.01;-491.69
9.8338;-479.96;-497.56
9.8534;-481.92;-495.60
9.8729;-483.87;-499.51
9.8925;-485.83;-501.47
9.9120;-487.78;-503.42
9.9316;-489.74;-505.38
9.9511;-491.69;-509.29
9.9707;-493.65;-505.38
9.9902;-495.60;-509.29
10.0098;-497.56;-513.20
10.0293;-499.51;-515.15
10.0489;-499.51;-515.15
10.0684;-497.56;-515.15
10.0880;-495.60;-515.15
10.1075;-493.65;-513.20
10.1271;-491.69;-513.20
10.1466;-489.74;-505.38
10.1662;-487.78;-436.95
10.1857;-485.83;-505.38
10.2053;-483.87;-501.47
10.2248;-481.92;-497.56
10.2444;-479.96;-431.09
10.2639;-478.01;-497.56
10.2835;-476.05;-495.60
10.3030;-474.10;-423.26
10.3226;-472.14;-423.26
10.3421;-470.19;-489.74
10.3617;-468.23;-489.74
10.3812;-466.28;-483.87
10.4008;-464.32;-485.83
10.4203;-462.37;-483.87
10.4399;-460.41;-479.96
10.4594;-458.46;-476.05
10.4790;-456.50;-478.01
10.4985;-454.55;-478.01
10.5181;-452.59;-472.14
10.5376;-450.64;-468.23
10.5572;-448.68;-399.80
10.5767;-446.73;-468.23
10.5963;-444.77;-464.32
10.6158;-442.82;-460.41
10.6354;-440.86;-395.89
10.6549;-438.91;-458.46
10.6745;-436.95;-456.50
10.6940;-435.00;-390.03
10.7136;-433.04;-386.12
10.7331;-431.09;-452.59
10.7527;-429.13;-448.68
10.7722;-427.18;-446.73
10.7918;-425.22;-380.25
10.8113;-423.26;-384.16
10.8309;-421.31;-440.86
10.8504;-419.35;-370.48
10.8700;-417.40;-440.86
10.8895;-415.44;-436.95
10.9091;-413.49;-435.00
10.9286;-411.53;-429.13
10.9482;-409.58;-362.66
10.9677;-407.62;-431.09
10.9873;-405.67;-425.22
11.0068;-403.71;-356.79
11.0264;-401.76;-354.84
11.0459;-399.80;-419.35
11.0655;-397.85;-419.35
11.0850;-395.89;-348.97
11.1046;-393.94;-348.97
11.1241;-391.98;-413.49
11.1437;-390.03;-411.53
11.1632;-388.07;-405.67
11.1828;-386.12;-337.24
11.2023;-384.16;-407.62
11.2219;-382.21;-403.71
11.2414;-380.25;-401.76
11.2610;-378.30;-335.29
11.2805;-376.34;-399.80
11.3001;-374.39;-393.94
11.3196;-372.43;-391.98
11.3392;-370.48;-327.47
11.3587;-368.52;-393.94
11.3783;-366.57;-391.98
11.3978;-364.61;-386.12
11.4174;-362.66;-317.69
11.4369;-360.70;-384.16
11.4565;-358.75;-380.25
11.4760;-356.79;-307.92
11.4956;-354.84;-309.87
11.5151;-352.88;-378.30
11.5347;-350.93;-374.39
11.5542;-348.97;-370.48
11.5738;-347.02;-302.05
11.5933;-345.06;-370.48
11.6129;-343.11;-370.48
11.6324;-341.15;-360.70
11.6520;-339.20;-296.19
11.6715;-337.24;-362.66
11.6911;-335.29;-358.75
11.7106;-333.33;-352.88
11.7302;-331.38;-290.32
11.7497;-329.42;-354.84
11.7693;-327.47;-352.88
11.7888;-325.51;-345.06
11.8084;-323.56;-282.50
11.8279;-321.60;-347.02
11.8475;-319.65;-343.11
11.8670;-317.69;-272.73
11.8866;-315.74;-272.73
11.9061;-313.78;-337.24
11.9257;-311.83;-337.24
11.9452;-309.87;-331.38
11.9648;-307.92;-264.91
11.9843;-305.96;-333.33
12.0039;-304.01;-323.56
12.0234;-302.05;-257.09
12.0430;-300.10;-259.04
12.0626;-298.14;-259.04
12.0821;-296.19;-321.60
12.1017;-294.23;-315.74
12.1212;-292.28;-247.31
12.1408;-290.32;-317.69
12.1603;-288.37;-313.78
12.1799;-286.41;-309.87
12.1994;-284.46;-239.49
12.2190;-282.50;-307.92
12.2385;-280.55;-305.96
12.2581;-278.59;-302.05
12.2776;-276.64;-233.63
12.2972;-274.68;-233.63
12.3167;-272.73;-302.05
12.3363;-270.77;-296.19
12.3558;-268.82;-227.76
12.3754;-266.86;-294.23
12.3949;-264.91;-290.32
12.4145;-262.95;-286.41
12.4340;-261.00;-223.85
12.4536;-259.04;-288.37
12.4731;-257.09;-282.50
12.4927;-255.13;-276.64
12.5122;-253.18;-212.12
12.5318;-251.22;-280.55
12.5513;-249.27;-276.64
12.5709;-247.31;-270.77
12.5904;-245.36;-206.26
12.6100;-243.40;-270.77
12.6295;-241.45;-270.77
12.6491;-239.49;-262.95
12.6686;-237.54;-196.48
12.6882;-235.58;-266.86
12.7077;-233.63;-261.00
12.7273;-231.67;-257.09
12.7468;-229.72;-190.62
12.7664;-227.76;-259.04
12.7859;-225.81;-253.18
12.8055;-223.85;-249.27
12.8250;-221.90;-184.75
12.8446;-219.94;-249.27
12.8641;-217.99;-247.31
12.8837;-216.03;-173.02
12.9032;-214.08;-176.93
12.9228;-212.12;-241.45
12.9423;-210.17;-239.49
12.9619;-208.21;-231.67
12.9814;-206.26;-165.20
13.0010;-204.30;-231.67
13.0205;-202.35;-229.72
13.0401;-200.39;-157.38
13.0596;-198.44;-161.29
13.0792;-196.48;-227.76
13.0987;-194.53;-221.90
13.1183;-192.57;-217.99
13.1378;-190.62;-149.56
13.1574;-188.66;-186.71
13.1769;-186.71;-216.03
13.1965;-184.75;-212.12
13.2160;-182.80;-145.65
13.2356;-180.84;-161.29
13.2551;-178.89;-208.21
13.2747;-176.93;-204.30
13.2942;-174.98;-137.83
13.3138;-173.02;-143.70
13.3333;-171.07;-200.39
13.3529;-169.11;-196.48
13.3724;-167.16;-130.01
13.3920;-165.20;-196.48
13.4115;-163.25;-192.57
13.4311;-161.29;-188.66
13.4506;-159.34;-120.23
13.4702;-157.38;-188.66
13.4897;-155.43;-186.71
13.5093;-153.47;-112.41
13.5288;-151.52;-110.46
13.5484;-149.56;-114.37
13.5679;-147.61;-180.84
13.5875;-145.65;-173.02
13.6070;-143.70;-106.55
13.6266;-141.74;-108.50
13.6461;-139.78;-171.07
13.6657;-137.83;-165.20
13.6852;-135.87;-100.68
13.7048;-133.92;-165.20
13.7243;-131.96;-165.20
13.7439;-130.01;-90.91
13.7634;-128.05;-161.29
13.7830;-126.10;-159.34
13.8025;-124.14;-83.09
13.8221;-122.19;-87.00
13.8416;-120.23;-147.61
13.8612;-118.28;-79.18
13.8807;-116.32;-147.61
13.9003;-114.37;-75.27
13.9198;-112.41;-81.13
13.9394;-110.46;-137.83
13.9589;-108.50;-73.31
13.9785;-106.55;-137.83
13.9980;-104.59;-131.96
14.0176;-102.64;-63.54
14.0371;-100.68;-131.96
14.0567;-98.73;-131.96
14.0762;-96.77;-59.63
14.0958;-94.82;-55.72
14.1153;-92.86;-130.01
14.1349;-90.91;-51.81
14.1544;-88.95;-120.23
14.1740;-87.00;-120.23
14.1935;-85.04;-116.32
14.2131;-83.09;-49.85
14.2326;-81.13;-43.99
14.2522;-79.18;-110.46
14.2717;-77.22;-42.03
14.2913;-75.27;-38.12
14.3108;-73.31;-104.59
14.3304;-71.36;-42.03
14.3499;-69.40;-34.21
14.3695;-67.45;-98.73
14.3890;-65.49;-98.73
14.4086;-63.54;-30.30
14.4281;-61.58;-26.39
14.4477;-59.63;-90.91
14.4672;-57.67;-92.86
14.4868;-55.72;-22.48
14.5063;-53.76;-16.62
14.5259;-51.81;-83.09
14.5454;-49.85;-85.04
14.5650;-47.90;-85.04
14.5845;-45.94;-10.75
14.6041;-43.99;-75.27
14.6236;-42.03;-77.22
14.6432;-40.08;-8.80
14.6627;-38.12;-2.93
14.6823;-36.17;-2.93
14.7018;-34.21;-2.93
14.7214;-32.26;2.93
14.7409;-30.30;-63.54
14.7605;-28.35;4.89
14.7800;-26.39;-59.63
14.7996;-24.44;6.84
14.8191;-22.48;-59.63
14.8387;-20.53;10.75
14.8582;-18.57;10.75
14.8778;-16.62;14.66
14.8973;-14.66;14.66
14.9169;-12.71;18.57
14.9364;-10.75;20.53
14.9560;-8.80;24.44
14.9755;-6.84;26.39
14.9951;-4.89;-42.03
15.0146;-2.93;-40.08
15.0342;-0.98;-36.17
15.0537;0.98;-32.26
15.0733;2.93;-32.26
15.0929;4.89;40.08
15.1124;6.84;-30.30
15.1320;8.80;-24.44
15.1515;10.75;40.08
15.1711;12.71;-24.44
15.1906;14.66;-22.48
15.2102;16.62;-20.53
15.2297;18.57;-16.62
15.2493;20.53;-16.62
15.2688;22.48;-12.71
15.2884;24.44;-12.71
15.3079;26.39;-8.80
15.3275;28.35;-4.89
15.3470;30.30;63.54
15.3666;32.26;61.58
15.3861;34.21;-2.93
15.4057;36.17;0.98
15.4252;38.12;67.45
15.4448;40.08;4.89
15.4643;42.03;73.31
15.4839;43.99;73.31
15.5034;45.94;10.75
15.5230;47.90;81.13
15.5425;49.85;81.13
15.5621;51.81;81.13
15.5816;53.76;16.62
15.6012;55.72;90.91
15.6207;57.67;88.95
15.6403;59.63;43.99
15.6598;61.58;24.44
15.6794;63.54;28.35
15.6989;65.49;96.77
15.7185;67.45;92.86
15.7380;69.40;36.17
15.7576;71.36;38.12
15.7771;73.31;104.59
15.7967;75.27;108.50
15.8162;77.22;106.55
15.8358;79.18;108.50
15.8553;81.13;110.46
15.8749;83.09;112.41
15.8944;85.04;114.37
15.9140;87.00;114.37
15.9335;88.95;118.28
15.9531;90.91;122.19
15.9726;92.86;122.19
15.9922;94.82;126.10
16.0117;96.77;126.10
16.0313;98.73;126.10
16.0508;100.68;61.58
16.0704;102.64;61.58
16.0899;104.59;130.01
16.1095;106.55;135.87
16.1290;108.50;137.83
16.1486;110.46;73.31
16.1681;112.41;73.31
16.1877;114.37;77.22
16.2072;116.32;79.18
16.2268;118.28;79.18
16.2463;120.23;79.18
16.2659;122.19;85.04
16.2854;124.14;85.04
16.3050;126.10;90.91
16.3245;128.05;88.95
16.3441;130.01;92.86
16.3636;131.96;92.86
16.3832;133.92;92.86
16.4027;135.87;96.77
16.4223;137.83;96.77
16.4418;139.78;100.68
16.4614;141.74;167.16
16.4809;143.70;169.11
16.5005;145.65;173.02
16.5200;147.61;108.50
16.5396;149.56;173.02
16.5591;151.52;180.84
16.5787;153.47;184.75
16.5982;155.43;118.28
16.6178;157.38;180.84
16.6373;159.34;186.71
16.6569;161.29;126.10
16.6764;163.25;122.19
16.6960;165.20;124.14
16.7155;167.16;196.48
16.7351;169.11;131.96
16.7546;171.07;130.01
16.7742;173.02;196.48
16.7937;174.98;200.39
16.8133;176.93;206.26
16.8328;178.89;139.78
16.8524;180.84;206.26
16.8719;182.80;208.21
16.8915;184.75;214.08
16.9110;186.71;147.61
16.9306;188.66;212.12
16.9501;190.62;216.03
16.9697;192.57;221.90
16.9892;194.53;153.47
17.0088;196.48;153.47
17.0283;198.44;223.85
17.0479;200.39;227.76
17.0674;202.35;161.29
17.0870;204.30;163.25
17.1065;206.26;231.67
17.1261;208.21;169.11
17.1456;210.17;167.16
17.1652;212.12;237.54
17.1847;214.08;239.49
17.2043;216.03;243.40
17.2238;217.99;176.93
17.2434;219.94;241.45
17.2629;221.90;245.36
17.2825;223.85;251.22
17.3020;225.81;184.75
17.3216;227.76;251.22
17.3411;229.72;257.09
17.3607;231.67;259.04
17.3802;233.63;190.62
17.3998;235.58;257.09
17.4193;237.54;264.91
17.4389;239.49;200.39
17.4584;241.45;198.44
17.4780;243.40;198.44
17.4975;245.36;268.82
17.5171;247.31;208.21
17.5366;249.27;204.30
17.5562;251.22;274.68
17.5757;253.18;276.64
17.5953;255.13;282.50
17.6148;257.09;214.08
17.6344;259.04;280.55
17.6539;261.00;284.46
17.6735;262.95;290.32
17.6930;264.91;221.90
17.7126;266.86;290.32
17.7321;268.82;294.23
17.7517;270.77;229.72
17.7712;272.73;227.76
17.7908;274.68;229.72
17.8103;276.64;302.05
17.8299;278.59;304.01
17.8494;280.55;237.54
17.8690;282.50;235.58
17.8885;284.46;305.96
17.9081;286.41;311.83
17.9276;288.37;243.40
17.9472;290.32;309.87
17.9667;292.28;315.74
17.9863;294.23;253.18
18.0058;296.19;253.18
18.0254;298.14;319.65
18.0450;300.10;321.60
18.0645;302.05;327.47
18.0841;304.01;261.00
18.1036;305.96;327.47
18.1232;307.92;333.33
18.1427;309.87;335.29
18.1623;311.83;300.10
18.1818;313.78;333.33
18.2014;315.74;337.24
18.2209;317.69;343.11
18.2405;319.65;327.47
18.2600;321.60;331.38
18.2796;323.56;347.02
18.2991;325.51;348.97
18.3187;327.47;343.11
18.3382;329.42;348.97
18.3578;331.38;354.84
18.3773;333.33;292.28
18.3969;335.29;290.32
18.4164;337.24;358.75
18.4360;339.20;360.70
18.4555;341.15;296.19
18.4751;343.11;360.70
18.4946;345.06;362.66
18.5142;347.02;366.57
18.5337;348.97;305.96
18.5533;350.93;366.57
18.5728;352.88;372.43
18.5924;354.84;376.34
18.6119;356.79;313.78
18.6315;358.75;376.34
18.6510;360.70;378.30
18.6706;362.66;384.16
18.6901;364.61;319.65
18.7097;366.57;321.60
18.7292;368.52;390.03
18.7488;370.48;390.03
18.7683;372.43;393.94
18.7879;374.39;329.42
18.8074;376.34;393.94
18.8270;378.30;399.80
18.8465;380.25;403.71
18.8661;382.21;399.80
18.8856;384.16;401.76
18.9052;386.12;405.67
18.9247;388.07;409.58
18.9443;390.03;343.11
18.9638;391.98;409.58
18.9834;393.94;413.49
19.0029;395.89;417.40
19.0225;397.85;350.93
19.0420;399.80;352.88
19.0616;401.76;421.31
19.0811;403.71;427.17
19.1007;405.67;360.70
19.1202;407.62;425.22
19.1398;409.58;429.13
19.1593;411.53;366.57
19.1789;413.49;366.57
19.1984;415.44;431.09
19.2180;417.40;436.95
19.2375;419.35;374.39
19.2571;421.31;436.95
19.2766;423.26;440.86
19.2962;425.22;444.77
19.3157;427.17;382.21
19.3353;429.13;444.77
19.3548;431.09;448.68
19.3744;433.04;450.64
19.3939;435.00;454.55
19.4135;436.95;450.64
19.4330;438.91;454.55
19.4526;440.86;458.46
19.4721;442.82;395.89
19.4917;444.77;460.41
19.5112;446.73;464.32
19.5308;448.68;466.28
19.5503;450.64;470.19
19.5699;452.59;401.76
19.5894;454.55;470.19
19.6090;456.50;474.10
19.6285;458.46;411.53
19.6481;460.41;474.10
19.6676;462.37;478.01
19.6872;464.32;483.87
19.7067;466.28;419.35
19.7263;468.23;481.92
19.7458;470.19;485.83
19.7654;472.14;489.74
19.7849;474.10;491.69
19.8045;476.05;425.22
19.8240;478.01;491.69
19.8436;479.96;497.56
19.8631;481.92;433.04
19.8827;483.87;435.00
19.9022;485.83;499.51
19.9218;487.78;505.38
19.9413;489.74;438.91
19.9609;491.69;440.86
19.9804;493.65;509.29
20.0000;495.60;511.24
20.0195;497.56;515.15
20.0391;499.51;448.68
20.0586;501.47;515.15
20.0782;501.47;521.02
20.0977;499.51;521.02
20.1173;497.56;513.20
20.1368;495.60;513.20
20.1564;493.65;515.15
20.1759;491.69;513.20
20.1955;489.74;507.33
20.2150;487.78;505.38
20.2346;485.83;505.38
20.2541;483.87;505.38
20.2737;481.92;499.51
20.2932;479.96;497.56
20.3128;478.01;499.51
20.3323;476.05;497.56
20.3519;474.10;427.17
20.3714;472.14;489.74
20.3910;470.19;489.74
20.4105;468.23;425.22
20.4301;466.28;419.35
20.4496;464.32;481.92
20.4692;462.37;483.87
20.4887;460.41;481.92
20.5083;458.46;476.05
20.5278;456.50;474.10
20.5474;454.55;476.05
20.5669;452.59;476.05
20.5865;450.64;468.23
20.6060;448.68;464.32
20.6256;446.73;468.23
20.6451;444.77;468.23
20.6647;442.82;460.41
20.6842;440.86;460.41
20.7038;438.91;460.41
20.7233;436.95;393.94
20.7429;435.00;390.03
20.7624;433.04;452.59
20.7820;431.09;450.64
20.8015;429.13;452.59
20.8211;427.17;444.77
20.8406;425.22;442.82
20.8602;423.26;446.73
20.8797;421.31;378.30
20.8993;419.35;374.39
20.9188;417.40;436.95
20.9384;415.44;436.95
20.9579;413.49;370.48
20.9775;411.53;429.13
20.9970;409.58;427.17
21.0166;407.62;429.13
21.0361;405.67;429.13
21.0557;403.71;423.26
21.0753;401.76;423.26
21.0948;399.80;421.31
21.1144;397.85;354.84
21.1339;395.89;413.49
21.1535;393.94;415.44
21.1730;391.98;413.49
21.1926;390.03;345.06
21.2121;388.07;407.62
21.2317;386.12;409.58
21.2512;384.16;409.58
21.2708;382.21;405.67
21.2903;380.25;337.24
21.3099;378.30;397.85
21.3294;376.34;401.76
21.3490;374.39;399.80
21.3685;372.43;329.42
21.3881;370.48;391.98
21.4076;368.52;391.98
21.4272;366.57;325.51
21.4467;364.61;321.60
21.4663;362.66;384.16
21.4858;360.70;384.16
21.5054;358.75;384.16
21.5249;356.79;313.78
21.5445;354.84;376.34
21.5640;352.88;376.34
21.5836;350.93;309.87
21.6031;348.97;307.92
21.6227;347.02;370.48
21.6422;345.06;368.52
21.6618;343.11;300.10
21.6813;341.15;360.70
21.7009;339.20;358.75
21.7204;337.24;362.66
21.7400;335.29;360.70
21.7595;333.33;352.88
21.7791;331.38;354.84
21.7986;329.42;354.84
21.8182;327.47;288.37
21.8377;325.51;341.15
21.8573;323.56;348.97
21.8768;321.60;345.06
21.8964;319.65;347.02
21.9159;317.69;276.64
21.9355;315.74;337.24
21.9550;313.78;339.20
21.9746;311.83;272.73
21.9941;309.87;268.82
22.0137;307.92;333.33
22.0332;305.96;331.38
22.0528;304.01;331.38
22.0723;302.05;262.95
22.0919;300.10;323.56
22.1114;298.14;327.47
22.1310;296.19;259.04
22.1505;294.23;253.18
22.1701;292.28;315.74
22.1896;290.32;315.74
22.2092;288.37;249.27
22.2287;286.41;243.40
22.2483;284.46;307.92
22.2678;282.50;307.92
22.2874;280.55;243.40
22.3069;278.59;237.54
22.3265;276.64;302.05
22.3460;274.68;300.10
22.3656;272.73;235.58
22.3851;270.77;227.76
22.4047;268.82;294.23
22.4242;266.86;294.23
22.4438;264.91;223.85
22.4633;262.95;221.90
22.4829;261.00;219.94
22.5024;259.04;286.41
22.5220;257.09;286.41
22.5415;255.13;214.08
22.5611;253.18;278.59
22.5806;251.22;278.59
22.6002;249.27;278.59
22.6197;247.31;208.21
22.6393;245.36;270.77
22.6588;243.40;270.77
22.6784;241.45;272.73
22.6979;239.49;202.35
22.7175;237.54;262.95
22.7370;235.58;262.95
22.7566;233.63;264.91
22.7761;231.67;194.53
22.7957;229.72;255.13
22.8152;227.76;257.09
22.8348;225.81;255.13
22.8543;223.85;186.71
22.8739;221.90;245.36
22.8934;219.94;247.31
22.9130;217.99;249.27
22.9325;216.03;176.93
22.9521;214.08;239.49
22.9716;212.12;241.45
22.9912;210.17;174.98
23.0107;208.21;169.11
23.0303;206.26;167.16
23.0498;204.30;229.72
23.0694;202.35;233.63
23.0889;200.39;165.20
23.1085;198.44;223.85
23.1280;196.48;225.81
23.1476;194.53;225.81
23.1671;192.57;155.43
23.1867;190.62;217.99
23.2062;188.66;214.08
23.2258;186.71;153.47
23.2453;184.75;145.65
23.2649;182.80;208.21
23.2844;180.84;210.17
23.3040;178.89;210.17
23.3235;176.93;141.74
23.3431;174.98;202.35
23.3626;173.02;202.35
23.3822;171.07;204.30
23.4017;169.11;133.92
23.4213;167.16;194.53
23.4408;165.20;192.57
23.4604;163.25;194.53
23.4799;161.29;126.10
23.4995;159.34;184.75
23.5190;157.38;184.75
23.5386;155.43;122.19
23.5581;153.47;116.32
23.5777;151.52;178.89
23.5972;149.56;178.89
23.6168;147.61;114.37
23.6363;145.65;112.41
23.6559;143.70;169.11
23.6754;141.74;171.07
23.6950;139.78;173.02
23.7145;137.83;100.68
23.7341;135.87;163.25
23.7536;133.92;163.25
23.7732;131.96;165.20
23.7927;130.01;96.77
23.8123;128.05;92.86
23.8318;126.10;92.86
23.8514;124.14;88.95
23.8709;122.19;88.95
23.8905;120.23;85.04
23.9100;118.28;87.00
23.9296;116.32;81.13
23.9491;114.37;79.18
23.9687;112.41;75.27
23.9882;110.46;77.22
24.0078;108.50;141.74
24.0273;106.55;135.87
24.0469;104.59;133.92
24.0664;102.64;135.87
24.0860;100.68;69.40
24.1056;98.73;128.05
24.1251;96.77;130.01
24.1447;94.82;124.14
24.1642;92.86;124.14
24.1838;90.91;122.19
24.2033;88.95;116.32
24.2229;87.00;114.37
24.2424;85.04;110.46
24.2620;83.09;108.50
24.2815;81.13;114.37
24.3011;79.18;108.50
24.3206;77.22;102.64
24.3402;75.27;104.59
24.3597;73.31;102.64
24.3793;71.36;100.68
24.3988;69.40;85.04
24.4184;67.45;81.13
24.4379;65.49;34.21
24.4575;63.54;96.77
24.4770;61.58;59.63
24.4966;59.63;26.39
24.5161;57.67;28.35
24.5357;55.72;90.91
24.5552;53.76;85.04
24.5748;51.81;16.62
24.5943;49.85;85.04
24.6139;47.90;81.13
24.6334;45.94;77.22
24.6530;43.99;10.75
24.6725;42.03;77.22
24.6921;40.08;73.31
24.7116;38.12;71.36
24.7312;36.17;0.98
24.7507;34.21;67.45
24.7703;32.26;63.54
24.7898;30.30;-0.98
24.8094;28.35;65.49
24.8289;26.39;61.58
24.8485;24.44;55.72
24.8680;22.48;-6.84
24.8876;20.53;-8.80
24.9071;18.57;51.81
24.9267;16.62;51.81
24.9462;14.66;-18.57
24.9658;12.71;-22.48
24.9853;10.75;-20.53
25.0049;8.80;-22.48
25.0244;6.84;-24.44
25.0440;4.89;43.99
25.0635;2.93;36.17
25.0831;0.98;38.12
25.1026;-0.98;32.26
25.1222;-2.93;-40.08
25.1417;-4.89;-38.12
25.1613;-6.84;-42.03
25.1808;-8.80;-40.08
25.2004;-10.75;-40.08
25.2199;-12.71;-47.90
25.2395;-14.66;18.57
25.2590;-16.62;16.62
25.2786;-18.57;16.62
25.2981;-20.53;14.66
25.3177;-22.48;12.71
25.3372;-24.44;8.80
25.3568;-26.39;-59.63
25.3763;-28.35;8.80
25.3959;-30.30;-63.54
25.4154;-32.26;2.93
25.4350;-34.21;-65.49
25.4545;-36.17;-0.98
25.4741;-38.12;-2.93
25.4936;-40.08;-73.31
25.5132;-42.03;-4.89
25.5327;-43.99;-6.84
25.5523;-45.94;-8.80
25.5718;-47.90;-10.75
25.5914;-49.85;-75.27
25.6109;-51.81;-83.09
25.6305;-53.76;-18.57
25.6500;-55.72;-18.57
25.6696;-57.67;-83.09
25.6891;-59.63;-90.91
25.7087;-61.58;-28.35
25.7282;-63.54;-24.44
25.7478;-65.49;-90.91
25.7673;-67.45;-98.73
25.7869;-69.40;-34.21
25.8064;-71.36;-36.17
25.8260;-73.31;-98.73
25.8455;-75.27;-106.55
25.8651;-77.22;-36.17
25.8846;-79.18;-104.59
25.9042;-81.13;-47.90
25.9237;-83.09;-43.99
25.9433;-85.04;-110.46
25.9628;-87.00;-118.28
25.9824;-88.95;-116.32
26.0019;-90.91;-120.23
26.0215;-92.86;-118.28
26.0410;-94.82;-128.05
26.0606;-96.77;-53.76
26.0801;-98.73;-126.10
26.0997;-100.68;-63.54
26.1192;-102.64;-128.05
26.1388;-104.59;-63.54
26.1583;-106.55;-133.92
26.1779;-108.50;-63.54
26.1974;-110.46;-73.31
26.2170;-112.41;-139.78
26.2365;-114.37;-73.31
26.2561;-116.32;-145.65
26.2756;-118.28;-147.61
26.2952;-120.23;-77.22
26.3147;-122.19;-149.56
26.3343;-124.14;-151.52
26.3538;-126.10;-87.00
26.3734;-128.05;-155.43
26.3929;-130.01;-155.43
26.4125;-131.96;-90.91
26.4320;-133.92;-161.29
26.4516;-135.87;-159.34
26.4711;-137.83;-96.77
26.4907;-139.78;-165.20
26.5102;-141.74;-167.16
26.5298;-143.70;-102.64
26.5493;-145.65;-108.50
26.5689;-147.61;-176.93
26.5884;-149.56;-173.02
26.6080;-151.52;-112.41
26.6275;-153.47;-116.32
26.6471;-155.43;-184.75
26.6666;-157.38;-180.84
26.6862;-159.34;-120.23
26.7057;-161.29;-190.62
26.7253;-163.25;-192.57
26.7448;-165.20;-120.23
26.7644;-167.16;-126.10
26.7839;-169.11;-133.92
26.8035;-171.07;-200.39
26.8230;-173.02;-130.01
26.8426;-174.98;-131.96
26.8621;-176.93;-147.61
26.8817;-178.89;-204.30
26.9012;-180.84;-206.26
26.9208;-182.80;-141.74
26.9403;-184.75;-167.16
26.9599;-186.71;-214.08
26.9794;-188.66;-143.70
26.9990;-190.62;-149.56
27.0185;-192.57;-219.94
27.0381;-194.53;-219.94
27.0576;-196.48;-151.52
27.0772;-198.44;-159.34
27.0967;-200.39;-225.81
27.1163;-202.35;-227.76
27.1359;-204.30;-225.81
27.1554;-206.26;-161.29
27.1750;-208.21;-167.16
27.1945;-210.17;-235.58
27.2141;-212.12;-235.58
27.2336;-214.08;-169.11
27.2532;-216.03;-243.40
27.2727;-217.99;-243.40
27.2923;-219.94;-241.45
27.3118;-221.90;-176.93
27.3314;-223.85;-251.22
27.3509;-225.81;-251.22
27.3705;-227.76;-249.27
27.3900;-229.72;-186.71
27.4096;-231.67;-259.04
27.4291;-233.63;-259.04
27.4487;-235.58;-261.00
27.4682;-237.54;-190.62
27.4878;-239.49;-266.86
27.5073;-241.45;-266.86
27.5269;-243.40;-194.53
27.5464;-245.36;-196.48
27.5660;-247.31;-274.68
27.5855;-249.27;-272.73
27.6051;-251.22;-272.73
27.6246;-253.18;-208.21
27.6442;-255.13;-282.50
27.6637;-257.09;-282.50
27.6833;-259.04;-280.55
27.7028;-261.00;-286.41
27.7224;-262.95;-290.32
27.7419;-264.91;-288.37
27.7615;-266.86;-288.37
27.7810;-268.82;-221.90
27.8006;-270.77;-296.19
27.8201;-272.73;-298.14
27.8397;-274.68;-296.19
27.8592;-276.64;-229.72
27.8788;-278.59;-305.96
27.8983;-280.55;-304.01
27.9179;-282.50;-302.05
27.9374;-284.46;-237.54
27.9570;-286.41;-309.87
27.9765;-288.37;-309.87
27.9961;-290.32;-309.87
28.0156;-292.28;-243.40
28.0352;-294.23;-319.65
28.0547;-296.19;-321.60
28.0743;-298.14;-315.74
28.0938;-300.10;-259.04
28.1134;-302.05;-325.51
28.1329;-304.01;-325.51
28.1525;-305.96;-327.47
28.1720;-307.92;-261.00
28.1916;-309.87;-266.86
28.2111;-311.83;-335.29
28.2307;-313.78;-264.91
28.2502;-315.74;-266.86
28.2698;-317.69;-341.15
28.2893;-319.65;-343.11
28.3089;-321.60;-270.77
28.3284;-323.56;-276.64
28.3480;-325.51;-348.97
28.3675;-327.47;-348.97
28.3871;-329.42;-348.97
28.4066;-331.38;-282.50
28.4262;-333.33;-286.41
28.4457;-335.29;-356.79
28.4653;-337.24;-356.79
28.4848;-339.20;-294.23
28.5044;-341.15;-362.66
28.5239;-343.11;-364.61
28.5435;-345.06;-362.66
28.5630;-347.02;-298.14
28.5826;-348.97;-372.43
28.6021;-350.93;-370.48
28.6217;-352.88;-370.48
28.6412;-354.84;-305.96
28.6608;-356.79;-380.25
28.6803;-358.75;-378.30
28.6999;-360.70;-307.92
28.7194;-362.66;-315.74
28.7390;-364.61;-384.16
28.7585;-366.57;-384.16
28.7781;-368.52;-386.12
28.7976;-370.48;-317.69
28.8172;-372.43;-325.51
28.8367;-374.39;-395.89
28.8563;-376.34;-393.94
28.8758;-378.30;-331.38
28.8954;-380.25;-399.80
28.9149;-382.21;-401.76
28.9345;-384.16;-401.76
28.9540;-386.12;-335.29
28.9736;-388.07;-407.62
28.9931;-390.03;-407.62
29.0127;-391.98;-409.58
29.0322;-393.94;-343.11
29.0518;-395.89;-415.44
29.0713;-397.85;-417.40
29.0909;-399.80;-350.93
29.1104;-401.76;-350.93
29.1300;-403.71;-427.18
29.1495;-405.67;-425.22
29.1691;-407.62;-425.22
29.1886;-409.58;-360.70
29.2082;-411.53;-431.09
29.2277;-413.49;-431.09
29.2473;-415.44;-429.13
29.2668;-417.40;-366.57
29.2864;-419.35;-436.95
29.3059;-421.31;-438.91
29.3255;-423.26;-436.95
29.3450;-425.22;-374.39
29.3646;-427.18;-388.07
29.3841;-429.13;-446.73
29.4037;-431.09;-446.73
29.4232;-433.04;-380.25
29.4428;-435.00;-454.55
29.4623;-436.95;-454.55
29.4819;-438.91;-452.59
29.5014;-440.86;-390.03
29.5210;-442.82;-462.37
29.5405;-444.77;-462.37
29.5601;-446.73;-462.37
29.5796;-448.68;-397.85
29.5992;-450.64;-468.23
29.6187;-452.59;-470.19
29.6383;-454.55;-470.19
29.6578;-456.50;-476.05
29.6774;-458.46;-478.01
29.6969;-460.41;-476.05
29.7165;-462.37;-478.01
29.7360;-464.32;-409.58
29.7556;-466.28;-483.87
29.7751;-468.23;-483.87
29.7947;-470.19;-485.83
29.8142;-472.14;-415.44
29.8338;-474.10;-491.69
29.8533;-476.05;-493.65
29.8729;-478.01;-491.69
29.8924;-479.96;-427.18
29.9120;-481.92;-495.60
29.9315;-483.87;-499.51
29.9511;-485.83;-499.51
29.9706;-487.78;-505.38
29.9902;-489.74;-503.42
30.0097;-491.69;-505.38
30.0293;-493.65;-505.38
30.0488;-495.60;-515.15
30.0684;-497.56;-513.20
30.0879;-499.51;-513.20
30.1075;-499.51;-517.11
30.1270;-497.56;-448.68
30.1466;-495.60;-515.15
30.1662;-493.65;-511.24
30.1857;-491.69;-509.29
30.2053;-489.74;-440.86
30.2248;-487.78;-509.29
30.2444;-485.83;-503.42
30.2639;-483.87;-499.51
30.2835;-481.92;-429.13
30.3030;-479.96;-499.51
30.3226;-478.01;-497.56
30.3421;-476.05;-491.69
30.3617;-474.10;-427.18
30.3812;-472.14;-491.69
30.4008;-470.19;-485.83
30.4203;-468.23;-483.87
30.4399;-466.28;-415.44
30.4594;-464.32;-483.87
30.4790;-462.37;-479.96
30.4985;-460.41;-478.01
30.5181;-458.46;-407.62
30.5376;-456.50;-479.96
30.5572;-454.55;-474.10
30.5767;-452.59;-468.23
30.5963;-450.64;-405.67
30.6158;-448.68;-468.23
30.6354;-446.73;-468.23
30.6549;-444.77;-460.41
30.6745;-442.82;-393.94
30.6940;-440.86;-462.37
30.7136;-438.91;-458.46
30.7331;-436.95;-454.55
30.7527;-435.00;-388.07
30.7722;-433.04;-452.59
30.7918;-431.09;-450.64
30.8113;-429.13;-446.73
30.8309;-427.18;-380.25
30.8504;-425.22;-448.68
30.8700;-423.26;-442.82
30.8895;-421.31;-438.91
30.9091;-419.35;-372.43
30.9286;-417.40;-438.91
30.9482;-415.44;-435.00
30.9677;-413.49;-433.04
30.9873;-411.53;-364.61
31.0068;-409.58;-431.09
31.0264;-407.62;-429.13
31.0459;-405.67;-423.26
31.0655;-403.71;-358.75
31.0850;-401.76;-425.22
31.1046;-399.80;-419.35
31.1241;-397.85;-417.40
31.1437;-395.89;-348.97
31.1632;-393.94;-350.93
31.1828;-391.98;-413.49
31.2023;-390.03;-341.15
31.2219;-388.07;-343.11
31.2414;-386.12;-411.53
31.2610;-384.16;-403.71
31.2805;-382.21;-403.71
31.3001;-380.25;-335.29
31.3196;-378.30;-401.76
31.3392;-376.34;-395.89
31.3587;-374.39;-393.94
31.3783;-372.43;-327.47
31.3978;-370.48;-393.94
31.4174;-368.52;-391.98
31.4369;-366.57;-386.12
31.4565;-364.61;-319.65
31.4760;-362.66;-386.12
31.4956;-360.70;-384.16
31.5151;-358.75;-382.21
31.5347;-356.79;-311.83
31.5542;-354.84;-380.25
31.5738;-352.88;-376.34
31.5933;-350.93;-370.48
31.6129;-348.97;-304.01
31.6324;-347.02;-370.48
31.6520;-345.06;-366.57
31.6715;-343.11;-364.61
31.6911;-341.15;-292.28
31.7106;-339.20;-362.66
31.7302;-337.24;-358.75
31.7497;-335.29;-354.84
31.7693;-333.33;-292.28
31.7888;-331.38;-354.84
31.8084;-329.42;-352.88
31.8279;-327.47;-347.02
31.8475;-325.51;-282.50
31.8670;-323.56;-348.97
31.8866;-321.60;-345.06
31.9061;-319.65;-339.20
31.9257;-317.69;-274.68
31.9452;-315.74;-276.64
31.9648;-313.78;-337.24
31.9843;-311.83;-333.33
32.0039;-309.87;-272.73
32.0234;-307.92;-333.33
32.0430;-305.96;-329.42
32.0625;-304.01;-259.04
32.0821;-302.05;-264.91
32.1016;-300.10;-327.47
32.1212;-298.14;-323.56
32.1407;-296.19;-317.69
32.1603;-294.23;-253.18
32.1798;-292.28;-251.22
32.1994;-290.32;-315.74
32.2189;-288.37;-309.87
32.2385;-286.41;-241.45
32.2580;-284.46;-313.78
32.2776;-282.50;-307.92
32.2971;-280.55;-305.96
32.3167;-278.59;-235.58
32.3362;-276.64;-239.49
32.3558;-274.68;-300.10
32.3753;-272.73;-296.19
32.3949;-270.77;-229.72
32.4144;-268.82;-229.72
32.4340;-266.86;-294.23
32.4535;-264.91;-290.32
32.4731;-262.95;-219.94
32.4926;-261.00;-290.32
32.5122;-259.04;-284.46
32.5317;-257.09;-278.59
32.5513;-255.13;-212.12
32.5708;-253.18;-282.50
32.5904;-251.22;-276.64
32.6099;-249.27;-206.26
32.6295;-247.31;-206.26
32.6490;-245.36;-272.73
32.6686;-243.40;-266.86
32.6881;-241.45;-266.86
32.7077;-239.49;-202.35
32.7272;-237.54;-266.86
32.7468;-235.58;-261.00
32.7663;-233.63;-259.04
32.7859;-231.67;-188.66
32.8054;-229.72;-259.04
32.8250;-227.76;-257.09
32.8445;-225.81;-247.31
32.8641;-223.85;-182.80
32.8836;-221.90;-251.22
32.9032;-219.94;-245.36
32.9227;-217.99;-243.40
32.9423;-216.03;-176.93
32.9618;-214.08;-243.40
32.9814;-212.12;-239.49
33.0009;-210.17;-171.07
33.0205;-208.21;-171.07
33.0401;-206.26;-237.54
33.0596;-204.30;-231.67
33.0792;-202.35;-227.76
33.0987;-200.39;-163.25
33.1183;-198.44;-161.29
33.1378;-196.48;-223.85
33.1574;-194.53;-221.90
33.1769;-192.57;-151.52
33.1965;-190.62;-153.47
33.2160;-188.66;-217.99
33.2356;-186.71;-214.08
33.2551;-184.75;-147.61
33.2747;-182.80;-165.20
33.2942;-180.84;-212.12
33.3138;-178.89;-206.26
33.3333;-176.93;-137.83
33.3529;-174.98;-147.61
33.3724;-173.02;-200.39
33.3920;-171.07;-130.01
33.4115;-169.11;-128.05
33.4311;-167.16;-130.01
33.4506;-165.20;-192.57
33.4702;-163.25;-190.62
33.4897;-161.29;-122.19
33.5093;-159.34;-126.10
33.5288;-157.38;-186.71
33.5484;-155.43;-182.80
33.5679;-153.47;-114.37
33.5875;-151.52;-118.28
33.6070;-149.56;-178.89
33.6266;-147.61;-174.98
33.6461;-145.65;-106.55
33.6657;-143.70;-106.55
33.6852;-141.74;-173.02
33.7048;-139.78;-98.73
33.7243;-137.83;-104.59
33.7439;-135.87;-167.16
33.7634;-133.92;-161.29
33.7830;-131.96;-94.82
33.8025;-130.01;-159.34
33.8221;-128.05;-155.43
33.8416;-126.10;-90.91
33.8612;-124.14;-155.43
33.8807;-122.19;-149.56
33.9003;-120.23;-85.04
33.9198;-118.28;-147.61
33.9394;-116.32;-145.65
33.9589;-114.37;-79.18
33.9785;-112.41;-143.70
33.9980;-110.46;-71.36
34.0176;-108.50;-141.74
34.0371;-106.55;-139.78
34.0567;-104.59;-67.45
34.0762;-102.64;-137.83
34.0958;-100.68;-130.01
34.1153;-98.73;-67.45
34.1349;-96.77;-63.54
34.1544;-94.82;-59.63
34.1740;-92.86;-122.19
34.1935;-90.91;-57.67
34.2131;-88.95;-51.81
34.2326;-87.00;-114.37
34.2522;-85.04;-53.76
34.2717;-83.09;-47.90
34.2913;-81.13;-110.46
34.3108;-79.18;-47.90
34.3304;-77.22;-42.03
34.3499;-75.27;-106.55
34.3695;-73.31;-40.08
34.3890;-71.36;-38.12
34.4086;-69.40;-32.26
34.4281;-67.45;-100.68
34.4477;-65.49;-30.30
34.4672;-63.54;-92.86
34.4868;-61.58;-94.82
34.5063;-59.63;-30.30
34.5259;-57.67;-24.44
34.5454;-55.72;-87.00
34.5650;-53.76;-87.00
34.5845;-51.81;-18.57
34.6041;-49.85;-16.62
34.6236;-47.90;-79.18
34.6432;-45.94;-81.13
34.6627;-43.99;-10.75
34.6823;-42.03;-4.89
34.7018;-40.08;-8.80
34.7214;-38.12;-0.98
34.7409;-36.17;-4.89
34.7605;-34.21;-0.98
34.7800;-32.26;-0.98
34.7996;-30.30;4.89
34.8191;-28.35;0.98
34.8387;-26.39;-63.54
34.8582;-24.44;6.84
34.8778;-22.48;-55.72
34.8973;-20.53;10.75
34.9169;-18.57;12.71
34.9364;-16.62;14.66
34.9560;-14.66;14.66
34.9755;-12.71;18.57
34.9951;-10.75;20.53
35.0146;-8.80;24.44
35.0342;-6.84;22.48
35.0537;-4.89;-38.12
35.0733;-2.93;-40.08
35.0928;-0.98;-34.21
35.1124;0.98;-34.21
35.1319;2.93;-30.30
35.1515;4.89;36.17
35.1710;6.84;-28.35
35.1906;8.80;43.99
35.2101;10.75;-24.44
35.2297;12.71;-22.48
35.2492;14.66;-22.48
35.2688;16.62;-18.57
35.2883;18.57;-16.62
35.3079;20.53;-12.71
35.3274;22.48;-14.66
35.3470;24.44;-12.71
35.3665;26.39;-8.80
35.3861;28.35;-4.89
35.4056;30.30;57.67
35.4252;32.26;61.58
35.4447;34.21;-4.89
35.4643;36.17;4.89
35.4838;38.12;65.49
35.5034;40.08;4.89
35.5229;42.03;71.36
35.5425;43.99;71.36
35.5620;45.94;10.75
35.5816;47.90;81.13
35.6011;49.85;81.13
35.6207;51.81;81.13
35.6402;53.76;16.62
35.6598;55.72;22.48
35.6793;57.67;87.00
35.6989;59.63;87.00
35.7184;61.58;24.44
35.7380;63.54;96.77
35.7575;65.49;94.82
35.7771;67.45;94.82
35.7966;69.40;34.21
35.8162;71.36;40.08
35.8357;73.31;104.59
35.8553;75.27;106.55
35.8748;77.22;108.50
35.8944;79.18;108.50
35.9139;81.13;112.41
35.9335;83.09;110.46
35.9530;85.04;110.46
35.9726;87.00;116.32
35.9921;88.95;118.28
36.0117;90.91;120.23
36.0312;92.86;122.19
36.0508;94.82;120.23
36.0704;96.77;126.10
36.0899;98.73;126.10
36.1095;100.68;124.14
36.1290;102.64;131.96
36.1486;104.59;69.40
36.1681;106.55;73.31
36.1877;108.50;139.78
36.2072;110.46;75.27
36.2268;112.41;73.31
36.2463;114.37;75.27
36.2659;116.32;77.22
36.2854;118.28;81.13
36.3050;120.23;83.09
36.3245;122.19;83.09
36.3441;124.14;83.09
36.3636;126.10;88.95
36.3832;128.05;90.91
36.4027;130.01;92.86
36.4223;131.96;92.86
36.4418;133.92;96.77
36.4614;135.87;94.82
36.4809;137.83;100.68
36.5005;139.78;100.68
36.5200;141.74;167.16
36.5396;143.70;108.50
36.5591;145.65;106.55
36.5787;147.61;174.98
36.5982;149.56;176.93
36.6178;151.52;116.32
36.6373;153.47;112.41
36.6569;155.43;180.84
36.6764;157.38;184.75
36.6960;159.34;188.66
36.7155;161.29;120.23
36.7351;163.25;186.71
36.7546;165.20;192.57
36.7742;167.16;128.05
36.7937;169.11;128.05
36.8133;171.07;194.53
36.8328;173.02;200.39
36.8524;174.98;137.83
36.8719;176.93;137.83
36.8915;178.89;202.35
36.9110;180.84;206.26
36.9306;182.80;212.12
36.9501;184.75;145.65
36.9697;186.71;208.21
36.9892;188.66;214.08
37.0088;190.62;217.99
37.0283;192.57;153.47
37.0479;194.53;217.99
37.0674;196.48;219.94
37.0870;198.44;225.81
37.1065;200.39;161.29
37.1261;202.35;227.76
37.1456;204.30;229.72
37.1652;206.26;169.11
37.1847;208.21;165.20
37.2043;210.17;231.67
37.2238;212.12;237.54
37.2434;214.08;241.45
37.2629;216.03;173.02
37.2825;217.99;241.45
37.3020;219.94;243.40
37.3216;221.90;249.27
37.3411;223.85;180.84
37.3607;225.81;247.31
37.3802;227.76;253.18
37.3998;229.72;190.62
37.4193;231.67;190.62
37.4389;233.63;257.09
37.4584;235.58;261.00
37.4780;237.54;264.91
37.4975;239.49;198.44
37.5171;241.45;264.91
37.5366;243.40;266.86
37.5562;245.36;206.26
37.5757;247.31;202.35
37.5953;249.27;272.73
37.6148;251.22;274.68
37.6344;253.18;214.08
37.6539;255.13;210.17
37.6735;257.09;278.59
37.6930;259.04;282.50
37.7126;261.00;219.94
37.7321;262.95;217.99
37.7517;264.91;286.41
37.7712;266.86;290.32
37.7908;268.82;294.23
37.8103;270.77;229.72
37.8299;272.73;296.19
37.8494;274.68;296.19
37.8690;276.64;304.01
37.8885;278.59;237.54
37.9081;280.55;302.05
37.9276;282.50;305.96
37.9472;284.46;245.36
37.9667;286.41;243.40
37.9863;288.37;309.87
38.0058;290.32;309.87
38.0254;292.28;317.69
38.0449;294.23;253.18
38.0645;296.19;315.74
38.0840;298.14;321.60
38.1036;300.10;325.51
38.1231;302.05;259.04
38.1427;304.01;325.51
38.1622;305.96;329.42
38.1818;307.92;268.82
38.2013;309.87;268.82
38.2209;311.83;331.38
38.2404;313.78;337.24
38.2600;315.74;341.15
38.2795;317.69;321.60
38.2991;319.65;341.15
38.3186;321.60;343.11
38.3382;323.56;282.50
38.3577;325.51;339.20
38.3773;327.47;347.02
38.3968;329.42;350.93
38.4164;331.38;290.32
38.4359;333.33;348.97
38.4555;335.29;352.88
38.4750;337.24;356.79
38.4946;339.20;362.66
38.5141;341.15;356.79
38.5337;343.11;362.66
38.5532;345.06;366.57
38.5728;347.02;370.48
38.5923;348.97;364.61
38.6119;350.93;370.48
38.6314;352.88;374.39
38.6510;354.84;378.30
38.6705;356.79;315.74
38.6901;358.75;376.34
38.7096;360.70;378.30
38.7292;362.66;323.56
38.7487;364.61;380.25
38.7683;366.57;384.16
38.7878;368.52;388.07
38.8074;370.48;391.98
38.8269;372.43;388.07
38.8465;374.39;391.98
38.8660;376.34;393.94
38.8856;378.30;399.80
38.9051;380.25;339.20
38.9247;382.21;397.85
38.9442;384.16;403.71
38.9638;386.12;343.11
38.9833;388.07;345.06
39.0029;390.03;401.76
39.0224;391.98;409.58
39.0420;393.94;411.53
39.0615;395.89;354.84
39.0811;397.85;413.49
39.1007;399.80;415.44
39.1202;401.76;421.31
39.1398;403.71;415.44
39.1593;405.67;421.31
39.1789;407.62;425.22
39.1984;409.58;370.48
39.2180;411.53;368.52
39.2375;413.49;429.13
39.2571;415.44;433.04
39.2766;417.40;436.95
39.2962;419.35;433.04
39.3157;421.31;436.95
39.3353;423.26;442.82
39.3548;425.22;386.12
39.3744;427.17;440.86
39.3939;429.13;444.77
39.4135;431.09;448.68
39.4330;433.04;450.64
39.4526;435.00;391.98
39.4721;436.95;450.64
39.4917;438.91;456.50
39.5112;440.86;399.80
39.5308;442.82;454.55
39.5503;444.77;458.46
39.5699;446.73;464.32
39.5894;448.68;466.28
39.6090;450.64;407.62
39.6285;452.59;468.23
39.6481;454.55;470.19
39.6676;456.50;476.05
39.6872;458.46;470.19
39.7067;460.41;472.14
39.7263;462.37;478.01
39.7458;464.32;423.26
39.7654;466.28;478.01
39.7849;468.23;481.92
39.8045;470.19;485.83
39.8240;472.14;489.74
39.8436;474.10;483.87
39.8631;476.05;487.78
39.8827;478.01;491.69
39.9022;479.96;495.60
39.9218;481.92;493.65
39.9413;483.87;497.56
39.9609;485.83;499.51
39.9804;487.78;505.38
40.0000;489.74;507.33
40.0195;491.69;503.42
40.0391;493.65;507.33
40.0586;495.60;509.29
40.0782;497.56;509.29
40.0977;499.51;511.24
40.1173;501.47;517.11

Acquisition complétée
