=~=~=~=~=~=~=~=~=~=~=~= PuTTY log 2025.04.09 15:36:02 =~=~=~=~=~=~=~=~=~=~=~=
Choisissez la methode :
1 - Chronoamperometrie
2 - Voltammetrie cyclique
Methode selectionnee : Voltammetrie cyclique
Entrez E1 (en Volts) :
Entrez E2 (en Volts) :
Entrez la vitesse de balayage (en V/s) :
Entrez le nombre de cycles :
Parametres enregistres.
E1 = -1.00 V, E2 = 1.00 V, Vitesse = 0.10 V/s
Cycles = 3.00
Entrez le facteur d'affichage (valeur par défaut = 1, valeur utilisée pour les mesures = 4) :
Facteur d'affichage choisi : 4
Entrez 'ok' pour commencer l'expérience.
Debut
Temps (s) tension (mV) courant (uA)
0.0782;1000.00;83.78
0.1564;992.18;81.83
0.2346;984.36;77.93
0.3128;976.54;77.15
0.3910;968.72;76.37
0.4692;960.90;75.20
0.5474;953.08;72.47
0.6256;945.26;72.86
0.7038;937.44;71.30
0.7820;929.62;70.13
0.8602;921.80;70.52
0.9384;913.98;67.79
1.0166;906.16;68.18
1.0948;898.34;67.01
1.1730;890.52;65.45
1.2512;882.70;65.06
1.3294;874.88;64.67
1.4076;867.06;63.89
1.4858;859.24;61.94
1.5640;851.42;63.89
1.6422;843.60;61.16
1.7204;835.78;58.43
1.7986;827.96;59.60
1.8768;820.14;58.43
1.9550;812.32;57.65
2.0332;804.50;55.31
2.1114;796.68;50.24
2.1896;788.86;55.31
2.2678;781.04;53.36
2.3460;773.22;51.41
2.4242;765.40;52.58
2.5024;757.58;51.41
2.5806;749.76;50.63
2.6588;741.94;44.78
2.7370;734.12;49.07
2.8152;726.30;48.29
2.8934;718.48;46.34
2.9716;710.66;45.56
3.0499;702.84;44.78
3.1281;695.02;39.32
3.2063;687.20;37.37
3.2845;679.38;42.05
3.3627;671.56;41.27
3.4409;663.74;40.49
3.5191;655.92;39.71
3.5973;648.10;38.93
3.6755;640.28;33.47
3.7537;632.46;31.13
3.8319;624.64;35.81
3.9101;616.82;34.64
3.9883;609.00;33.08
4.0665;601.18;32.30
4.1447;593.36;30.35
4.2229;585.54;28.40
4.3011;577.72;25.28
4.3793;569.90;24.50
4.4575;562.08;21.38
4.5357;554.26;14.36
4.6139;546.44;18.26
4.6921;538.62;14.36
4.7703;530.80;12.41
4.8485;522.98;6.56
4.9267;515.16;7.34
5.0049;507.34;1.10
5.0831;499.52;1.88
5.1613;491.70;0.32
5.2395;483.88;-1.24
5.3177;476.06;-3.97
5.3959;468.24;-5.14
5.4741;460.42;-6.70
5.5523;452.60;-6.70
5.6305;444.78;-8.26
5.7087;436.96;-14.50
5.7869;429.13;-10.21
5.8651;421.31;-10.99
5.9433;413.49;-11.38
6.0215;405.67;-11.38
6.0997;397.85;-13.72
6.1779;390.03;-21.52
6.2561;382.21;-21.52
6.3343;374.39;-23.47
6.4125;366.57;-20.35
6.4907;358.75;-22.69
6.5689;350.93;-23.86
6.6471;343.11;-32.05
6.7253;335.29;-30.49
6.8035;327.47;-33.61
6.8817;319.65;-35.17
6.9599;311.83;-38.68
7.0381;304.01;-48.43
7.1163;296.19;-52.72
7.1945;288.37;-51.16
7.2727;280.55;-55.06
7.3509;272.73;-63.25
7.4291;264.91;-69.88
7.5073;257.09;-76.51
7.5855;249.27;-90.16
7.6637;241.45;-92.50
7.7419;233.63;-101.86
7.8201;225.81;-115.51
7.8983;217.99;-123.70
7.9765;210.17;-135.01
8.0547;202.35;-142.81
8.1329;194.53;-164.26
8.2111;186.71;-172.84
8.2893;178.89;-177.91
8.3675;171.07;-187.66
8.4457;163.25;-197.41
8.5239;155.43;-196.63
8.6021;147.61;-198.97
8.6803;139.79;-198.97
8.7585;131.97;-198.97
8.8367;124.15;-193.12
8.9149;116.33;-194.68
8.9931;108.51;-185.71
9.0714;100.69;-179.47
9.1496;92.87;-179.86
9.2278;85.05;-169.72
9.3060;77.23;-165.82
9.3842;69.41;-162.31
9.4624;61.59;-162.70
9.5406;53.77;-150.61
9.6188;45.95;-150.22
9.6970;38.13;-147.49
9.7752;30.31;-142.81
9.8534;22.49;-149.05
9.9316;14.67;-139.30
10.0098;6.85;-141.64
10.0880;-0.97;-140.86
10.1662;-8.79;-136.96
10.2444;-16.61;-129.94
10.3226;-24.43;-133.84
10.4008;-32.25;-126.43
10.4790;-40.07;-124.09
10.5572;-47.89;-127.21
10.6354;-55.71;-126.43
10.7136;-63.53;-120.19
10.7918;-71.35;-120.58
10.8700;-79.17;-121.75
10.9482;-86.99;-115.51
11.0264;-94.81;-119.02
11.1046;-102.63;-112.00
11.1828;-110.45;-114.73
11.2610;-118.27;-110.05
11.3392;-126.09;-112.78
11.4174;-133.91;-112.78
11.4956;-141.74;-106.15
11.5738;-149.56;-104.98
11.6520;-157.38;-103.42
11.7302;-165.20;-105.76
11.8084;-173.02;-105.37
11.8866;-180.84;-98.74
11.9648;-188.66;-103.42
12.0430;-196.48;-101.08
12.1212;-204.30;-92.11
12.1994;-212.12;-96.40
12.2776;-219.94;-91.33
12.3558;-227.76;-96.01
12.4340;-235.58;-93.28
12.5122;-243.40;-86.65
12.5904;-251.22;-92.89
12.6686;-259.04;-91.33
12.7468;-266.86;-85.09
12.8250;-274.68;-88.60
12.9032;-282.50;-87.43
12.9814;-290.32;-81.19
13.0596;-298.14;-87.04
13.1378;-305.96;-80.02
13.2160;-313.78;-85.48
13.2942;-321.60;-78.07
13.3724;-329.42;-78.07
13.4506;-337.24;-76.90
13.5288;-345.06;-83.14
13.6070;-352.88;-77.29
13.6852;-360.70;-80.41
13.7634;-368.52;-75.34
13.8416;-376.34;-83.53
13.9198;-384.16;-81.19
13.9980;-391.98;-72.61
14.0762;-399.80;-82.36
14.1544;-407.62;-82.75
14.2326;-415.44;-78.85
14.3108;-423.26;-75.34
14.3890;-431.08;-79.63
14.4672;-438.90;-76.12
14.5454;-446.72;-83.53
14.6236;-454.54;-79.63
14.7018;-462.36;-81.58
14.7800;-470.18;-79.63
14.8582;-478.00;-86.65
14.9364;-485.82;-86.65
15.0146;-493.64;-87.82
15.0929;-501.46;-89.77
15.1711;-509.28;-93.67
15.2493;-517.10;-89.77
15.3275;-524.92;-98.74
15.4057;-532.74;-97.57
15.4839;-540.56;-103.81
15.5621;-548.38;-108.10
15.6403;-556.20;-113.95
15.7185;-564.02;-117.07
15.7967;-571.84;-118.24
15.8749;-579.66;-119.02
15.9531;-587.48;-125.26
16.0313;-595.30;-118.63
16.1095;-603.12;-126.82
16.1877;-610.94;-131.50
16.2659;-618.76;-133.45
16.3441;-626.58;-126.82
16.4223;-634.40;-130.33
16.5005;-642.22;-134.23
16.5787;-650.04;-128.77
16.6569;-657.86;-127.60
16.7351;-665.68;-125.26
16.8133;-673.50;-121.75
16.8915;-681.32;-122.92
16.9697;-689.14;-120.19
17.0479;-696.96;-119.02
17.1261;-704.79;-116.68
17.2043;-712.61;-115.90
17.2825;-720.43;-113.95
17.3607;-728.25;-112.78
17.4389;-736.07;-104.98
17.5171;-743.89;-110.05
17.5953;-751.71;-108.49
17.6735;-759.53;-108.49
17.7517;-767.35;-104.98
17.8299;-775.17;-103.03
17.9081;-782.99;-104.59
17.9863;-790.81;-102.64
18.0645;-798.63;-100.69
18.1427;-806.45;-94.06
18.2209;-814.27;-99.91
18.2991;-822.09;-99.91
18.3773;-829.91;-98.74
18.4555;-837.73;-97.96
18.5337;-845.55;-101.08
18.6119;-853.37;-98.35
18.6901;-861.19;-98.35
18.7683;-869.01;-101.47
18.8465;-876.83;-102.25
18.9247;-884.65;-101.86
19.0029;-892.47;-103.42
19.0811;-900.29;-105.76
19.1593;-908.11;-106.54
19.2375;-915.93;-108.88
19.3157;-923.75;-106.93
19.3939;-931.57;-111.22
19.4721;-939.39;-110.44
19.5503;-947.21;-112.39
19.6285;-955.03;-115.12
19.7067;-962.85;-114.73
19.7849;-970.67;-114.73
19.8631;-978.49;-116.68
19.9413;-986.31;-110.44
20.0195;-994.13;-122.92
20.0977;-988.26;-112.00
20.1759;-980.44;-99.91
20.2541;-972.62;-94.84
20.3323;-964.80;-84.70
20.4105;-956.98;-84.31
20.4887;-949.16;-80.80
20.5669;-941.34;-74.95
20.6451;-933.52;-71.83
20.7233;-925.70;-68.71
20.8015;-917.88;-60.91
20.8797;-910.06;-57.79
20.9579;-902.24;-57.01
21.0361;-894.42;-53.89
21.1144;-886.60;-46.48
21.1926;-878.78;-48.82
21.2708;-870.96;-46.09
21.3490;-863.14;-35.95
21.4272;-855.32;-41.41
21.5054;-847.50;-37.90
21.5836;-839.68;-35.95
21.6618;-831.86;-33.61
21.7400;-824.04;-31.27
21.8182;-816.22;-29.32
21.8964;-808.40;-26.20
21.9746;-800.58;-26.98
22.0528;-792.76;-25.81
22.1310;-784.94;-25.81
22.2092;-777.12;-24.25
22.2874;-769.30;-20.74
22.3656;-761.48;-21.13
22.4438;-753.66;-19.18
22.5220;-745.84;-16.84
22.6002;-738.02;-10.60
22.6784;-730.20;-15.67
22.7566;-722.38;-15.67
22.8348;-714.56;-12.55
22.9130;-706.74;-12.16
22.9912;-698.92;-10.60
23.0694;-691.10;-9.43
23.1476;-683.28;-5.14
23.2258;-675.46;-1.63
23.3040;-667.64;-4.75
23.3822;-659.82;-3.58
23.4604;-652.00;0.71
23.5386;-644.18;0.32
23.6168;-636.36;2.66
23.6950;-628.54;5.00
23.7732;-620.72;13.97
23.8514;-612.90;13.19
23.9296;-605.08;15.14
24.0078;-597.26;18.26
24.0860;-589.44;28.01
24.1642;-581.62;24.89
24.2424;-573.80;27.62
24.3206;-565.98;34.25
24.3988;-558.16;37.76
24.4770;-550.34;37.76
24.5552;-542.52;49.85
24.6334;-534.70;45.56
24.7116;-526.88;49.85
24.7898;-519.06;61.16
24.8680;-511.24;56.09
24.9462;-503.42;58.04
25.0244;-495.60;59.60
25.1026;-487.78;62.33
25.1808;-479.96;63.11
25.2590;-472.14;69.35
25.3372;-464.32;64.28
25.4154;-456.50;63.50
25.4936;-448.68;61.94
25.5718;-440.86;61.94
25.6500;-433.04;63.11
25.7282;-425.22;66.23
25.8064;-417.39;57.26
25.8846;-409.57;57.26
25.9628;-401.75;59.99
26.0410;-393.93;53.36
26.1192;-386.11;49.46
26.1974;-378.29;55.70
26.2756;-370.47;47.12
26.3538;-362.65;51.80
26.4320;-354.83;49.85
26.5102;-347.01;40.88
26.5884;-339.19;42.05
26.6666;-331.37;40.88
26.7448;-323.55;42.83
26.8230;-315.73;36.59
26.9012;-307.91;41.27
26.9794;-300.09;36.59
27.0576;-292.27;35.81
27.1359;-284.45;31.91
27.2141;-276.63;32.69
27.2923;-268.81;30.74
27.3705;-260.99;33.86
27.4487;-253.17;31.91
27.5269;-245.35;29.57
27.6051;-237.53;29.57
27.6833;-229.71;33.47
27.7615;-221.89;28.79
27.8397;-214.07;27.23
27.9179;-206.25;30.35
27.9961;-198.43;30.35
28.0743;-190.61;26.84
28.1525;-182.79;22.94
28.2307;-174.97;25.67
28.3089;-167.15;29.57
28.3871;-159.33;27.62
28.4653;-151.51;24.11
28.5435;-143.69;24.50
28.6217;-135.87;27.62
28.6999;-128.05;28.40
28.7781;-120.23;28.01
28.8563;-112.41;29.18
28.9345;-104.59;23.72
29.0127;-96.77;28.01
29.0909;-88.95;29.18
29.1691;-81.13;24.89
29.2473;-73.31;25.28
29.3255;-65.49;29.57
29.4037;-57.67;30.35
29.4819;-49.85;29.57
29.5601;-42.03;26.06
29.6383;-34.21;26.84
29.7165;-26.39;27.62
29.7947;-18.57;33.08
29.8729;-10.75;26.84
29.9511;-2.93;28.79
30.0293;4.89;28.79
30.1075;12.71;31.52
30.1857;20.53;28.01
30.2639;28.35;33.86
30.3421;36.17;33.08
30.4203;43.99;28.40
30.4985;51.81;33.08
30.5767;59.63;34.25
30.6549;67.45;28.79
30.7331;75.27;34.64
30.8113;83.09;33.08
30.8895;90.91;30.35
30.9677;98.73;34.25
31.0459;106.55;35.42
31.1241;114.37;30.35
31.2023;122.19;30.74
31.2805;130.01;35.81
31.3587;137.83;33.86
31.4369;145.65;32.69
31.5151;153.48;32.30
31.5933;161.30;35.03
31.6715;169.12;33.08
31.7497;176.94;34.64
31.8279;184.76;36.20
31.9061;192.58;40.49
31.9843;200.40;41.27
32.0625;208.22;38.15
32.1407;216.04;39.32
32.2189;223.86;43.61
32.2971;231.68;40.49
32.3753;239.50;46.34
32.4535;247.32;45.17
32.5317;255.14;46.73
32.6099;262.96;44.78
32.6881;270.78;49.07
32.7663;278.60;49.85
32.8445;286.42;51.80
32.9227;294.24;52.58
33.0009;302.06;54.92
33.0792;309.88;54.14
33.1574;317.70;52.19
33.2356;325.52;53.75
33.3138;333.34;58.43
33.3920;341.16;58.82
33.4702;348.98;59.60
33.5484;356.80;60.77
33.6266;364.62;59.21
33.7048;372.44;63.11
33.7830;380.26;64.67
33.8612;388.08;65.06
33.9394;395.90;64.67
34.0176;403.72;68.57
34.0958;411.54;70.52
34.1740;419.36;67.01
34.2522;427.18;74.03
34.3304;435.00;73.64
34.4086;442.82;75.20
34.4868;450.64;77.15
34.5650;458.46;74.03
34.6432;466.28;74.81
34.7214;474.10;80.66
34.7996;481.92;83.39
34.8778;489.74;84.17
34.9560;497.56;85.73
35.0342;505.38;88.46
35.1124;513.20;84.17
35.1906;521.02;87.29
35.2688;528.84;92.75
35.3470;536.66;96.26
35.4252;544.48;97.82
35.5034;552.30;95.09
35.5816;560.12;95.48
35.6598;567.94;102.11
35.7380;575.76;99.38
35.8162;583.58;100.94
35.8944;591.40;106.40
35.9726;599.22;109.13
36.0508;607.04;110.30
36.1290;614.86;105.62
36.2072;622.68;111.08
36.2854;630.50;111.47
36.3636;638.32;108.74
36.4418;646.14;114.20
36.5200;653.96;113.81
36.5982;661.78;115.37
36.6764;669.60;116.15
36.7546;677.42;116.93
36.8328;685.24;117.32
36.9110;693.06;113.42
36.9892;700.88;119.27
37.0674;708.70;113.42
37.1456;716.52;118.88
37.2238;724.35;119.27
37.3020;732.17;119.66
37.3802;739.99;120.83
37.4584;747.81;119.27
37.5366;755.63;115.37
37.6148;763.45;120.44
37.6930;771.27;116.93
37.7712;779.09;120.83
37.8494;786.91;122.39
37.9276;794.73;123.17
38.0058;802.55;123.56
38.0840;810.37;125.51
38.1622;818.19;127.46
38.2404;826.01;127.07
38.3186;833.83;128.63
38.3968;841.65;130.19
38.4750;849.47;132.14
38.5532;857.29;133.31
38.6314;865.11;136.43
38.7096;872.93;137.60
38.7878;880.75;140.72
38.8660;888.57;143.45
38.9442;896.39;145.01
39.0224;904.21;144.62
39.1007;912.03;153.59
39.1789;919.85;158.27
39.2571;927.67;162.95
39.3353;935.49;168.41
39.4135;943.31;172.70
39.4917;951.13;177.38
39.5699;958.95;180.11
39.6481;966.77;182.84
39.7263;974.59;184.79
39.8045;982.41;186.35
39.8827;990.23;188.69
39.9609;998.05;188.69
40.0391;1005.87;191.03
40.1173;1000.00;185.57
40.1955;992.18;172.70
40.2737;984.36;162.17
40.3519;976.54;153.98
40.4301;968.72;146.18
40.5083;960.90;139.55
40.5865;953.08;132.92
40.6647;945.26;127.46
40.7429;937.44;122.00
40.8211;929.62;116.93
40.8993;921.80;111.86
40.9775;913.98;108.35
41.0557;906.16;99.38
41.1339;898.34;100.16
41.2121;890.52;96.65
41.2903;882.70;93.53
41.3685;874.88;89.24
41.4467;867.06;86.90
41.5249;859.24;84.56
41.6031;851.42;81.44
41.6813;843.60;79.10
41.7595;835.78;77.93
41.8377;827.96;75.59
41.9159;820.14;73.64
41.9941;812.32;71.30
42.0723;804.50;69.35
42.1505;796.68;68.96
42.2287;788.86;67.01
42.3069;781.04;65.45
42.3851;773.22;64.28
42.4633;765.40;62.72
42.5415;757.58;60.77
42.6197;749.76;60.38
42.6979;741.94;59.21
42.7761;734.12;53.75
42.8543;726.30;52.19
42.9325;718.48;55.70
43.0107;710.66;54.53
43.0889;702.84;53.75
43.1671;695.02;52.19
43.2453;687.20;50.63
43.3235;679.38;51.41
43.4017;671.56;48.68
43.4799;663.74;44.78
43.5581;655.92;46.73
43.6363;648.10;44.00
43.7145;640.28;38.93
43.7927;632.46;40.49
43.8709;624.64;40.49
43.9491;616.82;40.10
44.0273;609.00;36.98
44.1055;601.18;36.20
44.1837;593.36;35.42
44.2619;585.54;33.08
44.3401;577.72;31.13
44.4183;569.90;26.06
44.4965;562.08;24.11
44.5747;554.26;26.06
44.6529;546.44;24.11
44.7311;538.62;23.33
44.8093;530.80;16.70
44.8875;522.98;19.04
44.9657;515.16;17.48
45.0439;507.34;14.36
45.1222;499.52;8.51
45.2004;491.70;11.24
45.2786;483.88;8.12
45.3568;476.06;7.34
45.4350;468.24;5.39
45.5132;460.42;1.88
45.5914;452.60;-2.41
45.6696;444.78;-1.24
45.7478;436.96;-8.26
45.8260;429.13;-3.58
45.9042;421.31;-4.75
45.9824;413.49;-5.53
46.0606;405.67;-7.48
46.1388;397.85;-9.82
46.2170;390.03;-14.11
46.2952;382.21;-10.21
46.3734;374.39;-9.04
46.4516;366.57;-14.50
46.5298;358.75;-11.38
46.6080;350.93;-12.16
46.6862;343.11;-16.45
46.7644;335.29;-9.82
46.8426;327.47;-12.16
46.9208;319.65;-15.28
46.9990;311.83;-11.77
47.0772;304.01;-11.38
47.1554;296.19;-10.21
47.2336;288.37;-12.55
47.3118;280.55;-11.38
47.3900;272.73;-5.92
47.4682;264.91;-6.70
47.5464;257.09;-5.53
47.6246;249.27;-10.99
47.7028;241.45;-5.53
47.7810;233.63;-9.04
47.8592;225.81;-9.43
47.9374;217.99;-10.99
48.0156;210.17;-7.48
48.0938;202.35;-7.09
48.1720;194.53;-8.65
48.2502;186.71;-12.55
48.3284;178.89;-9.43
48.4066;171.07;-13.33
48.4848;163.25;-9.43
48.5630;155.43;-9.82
48.6412;147.61;-10.21
48.7194;139.79;-12.94
48.7976;131.97;-14.50
48.8758;124.15;-12.94
48.9540;116.33;-10.60
49.0322;108.51;-9.82
49.1104;100.69;-15.28
49.1886;92.87;-9.43
49.2668;85.05;-9.82
49.3450;77.23;-13.72
49.4232;69.41;-7.09
49.5014;61.59;-12.55
49.5796;53.77;-12.16
49.6578;45.95;-11.38
49.7360;38.13;-9.43
49.8142;30.31;-9.82
49.8924;22.49;-13.33
49.9706;14.67;-10.21
50.0488;6.85;-13.72
50.1270;-0.97;-12.16
50.2052;-8.79;-10.60
50.2834;-16.61;-8.26
50.3616;-24.43;-15.28
50.4398;-32.25;-14.89
50.5180;-40.07;-13.72
50.5962;-47.89;-14.11
50.6744;-55.71;-14.11
50.7526;-63.53;-14.11
50.8308;-71.35;-10.21
50.9090;-79.17;-8.65
50.9872;-86.99;-9.43
51.0654;-94.81;-11.38
51.1436;-102.63;-9.04
51.2219;-110.45;-7.09
51.3001;-118.27;-12.94
51.3783;-126.09;-6.31
51.4565;-133.91;-8.26
51.5347;-141.74;-9.04
51.6129;-149.56;-10.99
51.6911;-157.38;-11.38
51.7693;-165.20;-9.82
51.8475;-173.02;-8.65
51.9257;-180.84;-10.60
52.0039;-188.66;-10.21
52.0821;-196.48;-4.36
52.1603;-204.30;-8.65
52.2385;-212.12;-8.65
52.3167;-219.94;-8.26
52.3949;-227.76;-7.87
52.4731;-235.58;-8.26
52.5513;-243.40;-7.87
52.6295;-251.22;-7.09
52.7077;-259.04;-7.87
52.7859;-266.86;-7.48
52.8641;-274.68;-6.70
52.9423;-282.50;-6.70
53.0205;-290.32;-7.09
53.0987;-298.14;-6.70
53.1769;-305.96;-5.14
53.2551;-313.78;-1.63
53.3333;-321.60;-2.41
53.4115;-329.42;-4.36
53.4897;-337.24;-4.75
53.5679;-345.06;-6.31
53.6461;-352.88;-2.02
53.7243;-360.70;-3.97
53.8025;-368.52;-5.53
53.8807;-376.34;-4.75
53.9589;-384.16;-0.85
54.0371;-391.98;-1.24
54.1153;-399.80;-5.92
54.1935;-407.62;-5.92
54.2717;-415.44;-7.48
54.3499;-423.26;-5.53
54.4281;-431.08;-7.09
54.5063;-438.90;-5.53
54.5845;-446.72;-7.87
54.6627;-454.54;-6.70
54.7409;-462.36;-4.36
54.8191;-470.18;-5.53
54.8973;-478.00;-8.26
54.9755;-485.82;-7.09
55.0537;-493.64;-12.16
55.1319;-501.46;-13.33
55.2101;-509.28;-12.16
55.2883;-517.10;-13.72
55.3665;-524.92;-16.84
55.4447;-532.74;-16.45
55.5229;-540.56;-21.52
55.6011;-548.38;-22.30
55.6793;-556.20;-21.13
55.7575;-564.02;-29.32
55.8357;-571.84;-30.88
55.9139;-579.66;-33.22
55.9921;-587.48;-37.51
56.0703;-595.30;-37.90
56.1485;-603.12;-41.41
56.2267;-610.94;-42.97
56.3049;-618.76;-44.53
56.3831;-626.58;-43.36
56.4613;-634.40;-46.09
56.5395;-642.22;-42.58
56.6177;-650.04;-45.70
56.6959;-657.86;-46.48
56.7741;-665.68;-42.97
56.8523;-673.50;-45.70
56.9305;-681.32;-39.46
57.0087;-689.14;-44.14
57.0869;-696.96;-39.07
57.1651;-704.79;-43.75
57.2434;-712.61;-41.41
57.3216;-720.43;-41.80
57.3998;-728.25;-44.53
57.4780;-736.07;-41.41
57.5562;-743.89;-31.66
57.6344;-751.71;-35.95
57.7126;-759.53;-37.12
57.7908;-767.35;-34.00
57.8690;-775.17;-35.56
57.9472;-782.99;-41.02
58.0254;-790.81;-33.22
58.1036;-798.63;-30.88
58.1818;-806.45;-33.61
58.2600;-814.27;-32.83
58.3382;-822.09;-30.10
58.4164;-829.91;-33.22
58.4946;-837.73;-32.05
58.5728;-845.55;-30.49
58.6510;-853.37;-27.37
58.7292;-861.19;-31.27
58.8074;-869.01;-30.88
58.8856;-876.83;-30.49
58.9638;-884.65;-26.98
59.0420;-892.47;-30.10
59.1202;-900.29;-28.54
59.1984;-908.11;-28.54
59.2766;-915.93;-28.93
59.3548;-923.75;-30.10
59.4330;-931.57;-27.76
59.5112;-939.39;-31.27
59.5894;-947.21;-30.88
59.6676;-955.03;-35.17
59.7458;-962.85;-34.39
59.8240;-970.67;-35.17
59.9022;-978.49;-32.83
59.9804;-986.31;-39.07
60.0586;-994.13;-35.95
60.1368;-988.26;-35.95
60.2150;-980.44;-28.15
60.2932;-972.62;-27.37
60.3714;-964.80;-23.08
60.4496;-956.98;-18.79
60.5278;-949.16;-16.06
60.6060;-941.34;-14.11
60.6842;-933.52;-13.33
60.7624;-925.70;-9.43
60.8406;-917.88;-9.43
60.9188;-910.06;-6.31
60.9970;-902.24;-6.31
61.0752;-894.42;-2.80
61.1534;-886.60;-3.58
61.2316;-878.78;-5.14
61.3098;-870.96;-3.97
61.3880;-863.14;0.32
61.4662;-855.32;6.17
61.5444;-847.50;6.56
61.6226;-839.68;1.88
61.7008;-831.86;2.66
61.7790;-824.04;1.49
61.8572;-816.22;5.78
61.9354;-808.40;3.05
62.0136;-800.58;5.00
62.0918;-792.76;6.17
62.1700;-784.94;5.78
62.2482;-777.12;6.95
62.3264;-769.30;7.34
62.4046;-761.48;10.07
62.4828;-753.66;8.12
62.5610;-745.84;8.90
62.6392;-738.02;11.63
62.7174;-730.20;10.07
62.7956;-722.38;10.07
62.8738;-714.56;10.07
62.9520;-706.74;15.53
63.0302;-698.92;12.02
63.1084;-691.10;13.19
63.1866;-683.28;16.31
63.2649;-675.46;15.53
63.3431;-667.64;17.09
63.4213;-659.82;15.92
63.4995;-652.00;17.87
63.5777;-644.18;19.43
63.6559;-636.36;20.60
63.7341;-628.54;24.11
63.8123;-620.72;22.55
63.8905;-612.90;23.33
63.9687;-605.08;26.45
64.0469;-597.26;28.01
64.1251;-589.44;30.74
64.2033;-581.62;32.69
64.2815;-573.80;35.42
64.3597;-565.98;42.05
64.4380;-558.16;44.78
64.5162;-550.34;44.00
64.5944;-542.52;49.85
64.6726;-534.70;47.90
64.7508;-526.88;49.85
64.8290;-519.06;52.19
64.9073;-511.24;58.04
64.9855;-503.42;59.60
65.0637;-495.60;59.60
65.1419;-487.78;58.82
65.2201;-479.96;62.33
65.2983;-472.14;64.67
65.3766;-464.32;62.33
65.4548;-456.50;64.28
65.5330;-448.68;63.50
65.6112;-440.86;62.33
65.6894;-433.04;59.99
65.7676;-425.22;59.99
65.8459;-417.39;59.99
65.9241;-409.57;58.04
66.0023;-401.75;57.26
66.0805;-393.93;58.43
66.1587;-386.11;59.21
66.2369;-378.29;54.92
66.3152;-370.47;58.04
66.3934;-362.65;55.31
66.4716;-354.83;51.80
66.5498;-347.01;51.41
66.6280;-339.19;51.80
66.7062;-331.37;50.24
66.7845;-323.55;52.58
66.8627;-315.73;52.58
66.9409;-307.91;46.73
67.0191;-300.09;47.90
67.0973;-292.27;49.85
67.1755;-284.45;47.12
67.2538;-276.63;45.17
67.3320;-268.81;42.83
67.4102;-260.99;45.95
67.4884;-253.17;46.73
67.5666;-245.35;41.66
67.6448;-237.53;42.83
67.7231;-229.71;42.83
67.8013;-221.89;44.78
67.8795;-214.07;43.22
67.9577;-206.25;42.05
68.0359;-198.43;42.44
68.1141;-190.61;38.15
68.1924;-182.79;38.54
68.2706;-174.97;40.49
68.3488;-167.15;42.05
68.4270;-159.33;39.71
68.5052;-151.51;36.20
68.5834;-143.69;38.54
68.6617;-135.87;38.54
68.7399;-128.05;35.81
68.8181;-120.23;34.64
68.8963;-112.41;33.47
68.9745;-104.59;40.10
69.0527;-96.77;37.37
69.1310;-88.95;33.47
69.2092;-81.13;36.98
69.2874;-73.31;36.59
69.3656;-65.49;33.08
69.4438;-57.67;32.69
69.5220;-49.85;31.91
69.6003;-42.03;35.03
69.6785;-34.21;36.20
69.7567;-26.39;35.03
69.8349;-18.57;29.96
69.9131;-10.75;34.25
69.9913;-2.93;32.69
70.0696;4.89;33.86
70.1478;12.71;30.35
70.2260;20.53;35.03
70.3042;28.35;29.57
70.3824;36.17;31.13
70.4606;43.99;26.45
70.5389;51.81;30.74
70.6171;59.63;31.52
70.6953;67.45;34.64
70.7735;75.27;37.37
70.8517;83.09;35.81
70.9299;90.91;35.03
71.0082;98.73;33.86
71.0864;106.55;31.52
71.1646;114.37;31.13
71.2428;122.19;31.52
71.3210;130.01;30.35
71.3992;137.83;33.08
71.4775;145.65;33.47
71.5557;153.48;31.52
71.6339;161.30;33.86
71.7121;169.12;31.91
71.7903;176.94;36.98
71.8685;184.76;38.15
71.9468;192.58;35.81
72.0250;200.40;35.42
72.1032;208.22;40.10
72.1814;216.04;41.27
72.2596;223.86;41.27
72.3378;231.68;42.05
72.4160;239.50;44.00
72.4943;247.32;43.61
72.5725;255.14;44.00
72.6507;262.96;45.17
72.7289;270.78;45.56
72.8071;278.60;46.34
72.8853;286.42;47.12
72.9636;294.24;48.29
73.0418;302.06;51.02
73.1200;309.88;49.46
73.1982;317.70;51.80
73.2764;325.52;51.41
73.3546;333.34;52.19
73.4329;341.16;54.53
73.5111;348.98;50.63
73.5893;356.80;54.92
73.6675;364.62;56.09
73.7457;372.44;56.87
73.8239;380.26;59.21
73.9022;388.08;60.38
73.9804;395.90;58.43
74.0586;403.72;62.72
74.1368;411.54;64.28
74.2150;419.36;62.72
74.2932;427.18;63.50
74.3715;435.00;65.06
74.4497;442.82;70.13
74.5279;450.64;68.96
74.6061;458.46;72.47
74.6843;466.28;74.81
74.7625;474.10;77.15
74.8408;481.92;75.20
74.9190;489.74;78.71
74.9972;497.56;81.83
75.0754;505.38;84.95
75.1536;513.20;86.90
75.2318;521.02;88.07
75.3101;528.84;87.68
75.3883;536.66;91.97
75.4665;544.48;92.75
75.5447;552.30;92.36
75.6229;560.12;98.21
75.7011;567.94;95.87
75.7794;575.76;101.33
75.8576;583.58;102.50
75.9358;591.40;104.84
76.0140;599.22;106.79
76.0922;607.04;108.35
76.1704;614.86;109.91
76.2487;622.68;111.47
76.3269;630.50;109.91
76.4051;638.32;114.98
76.4833;646.14;116.15
76.5615;653.96;113.03
76.6397;661.78;118.10
76.7180;669.60;119.66
76.7962;677.42;120.83
76.8744;685.24;118.10
76.9526;693.06;122.78
77.0308;700.88;124.34
77.1090;708.70;120.44
77.1873;716.52;124.73
77.2655;724.35;122.78
77.3437;732.17;126.29
77.4219;739.99;126.68
77.5001;747.81;127.07
77.5783;755.63;128.24
77.6566;763.45;124.73
77.7348;771.27;128.63
77.8130;779.09;129.41
77.8912;786.91;129.80
77.9694;794.73;131.36
78.0476;802.55;132.53
78.1259;810.37;133.31
78.2041;818.19;134.09
78.2823;826.01;136.04
78.3605;833.83;136.43
78.4387;841.65;138.38
78.5169;849.47;139.16
78.5952;857.29;141.11
78.6734;865.11;141.89
78.7516;872.93;144.23
78.8298;880.75;146.18
78.9080;888.57;147.35
78.9862;896.39;149.69
79.0645;904.21;152.42
79.1427;912.03;153.59
79.2209;919.85;156.71
79.2991;927.67;159.44
79.3773;935.49;163.73
79.4555;943.31;165.68
79.5338;951.13;167.63
79.6120;958.95;170.75
79.6902;966.77;173.09
79.7684;974.59;171.53
79.8466;982.41;176.99
79.9248;990.23;177.77
80.0031;998.05;179.72
80.0813;1005.87;182.06
80.1595;1000.00;174.65
80.2377;992.18;164.90
80.3159;984.36;156.32
80.3941;976.54;147.74
80.4724;968.72;141.11
80.5506;960.90;134.87
80.6288;953.08;129.02
80.7070;945.26;124.73
80.7852;937.44;119.66
80.8634;929.62;115.37
80.9417;921.80;111.47
81.0199;913.98;107.57
81.0981;906.16;100.16
81.1763;898.34;99.77
81.2545;890.52;97.43
81.3327;882.70;94.70
81.4110;874.88;91.58
81.4892;867.06;88.07
81.5674;859.24;86.90
81.6456;851.42;84.56
81.7238;843.60;81.44
81.8020;835.78;76.37
81.8803;827.96;77.54
81.9585;820.14;75.20
82.0367;812.32;73.25
82.1149;804.50;72.08
82.1931;796.68;70.52
82.2713;788.86;68.96
82.3496;781.04;63.89
82.4278;773.22;65.45
82.5060;765.40;64.28
82.5842;757.58;63.50
82.6624;749.76;61.94
82.7406;741.94;59.99
82.8189;734.12;59.21
82.8971;726.30;58.04
82.9753;718.48;57.26
83.0535;710.66;55.31
83.1317;702.84;54.53
83.2099;695.02;53.36
83.2882;687.20;52.19
83.3664;679.38;51.02
83.4446;671.56;49.46
83.5228;663.74;49.85
83.6010;655.92;47.12
83.6792;648.10;45.95
83.7574;640.28;44.78
83.8357;632.46;43.61
83.9139;624.64;41.27
83.9921;616.82;40.10
84.0703;609.00;39.71
84.1485;601.18;37.76
84.2267;593.36;35.81
84.3050;585.54;35.03
84.3832;577.72;33.47
84.4614;569.90;28.40
84.5396;562.08;27.23
84.6178;554.26;30.35
84.6960;546.44;27.62
84.7743;538.62;26.45
84.8525;530.80;24.50
84.9307;522.98;22.55
85.0089;515.16;22.55
85.0871;507.34;20.21
85.1653;499.52;16.70
85.2436;491.70;14.75
85.3218;483.88;12.02
85.4000;476.06;9.29
85.4782;468.24;9.29
85.5564;460.42;10.46
85.6346;452.60;9.29
85.7129;444.78;8.12
85.7911;436.96;8.51
85.8693;429.13;2.66
85.9475;421.31;5.78
86.0257;413.49;3.44
86.1039;405.67;-1.24
86.1822;397.85;-2.41
86.2604;390.03;-0.07
86.3386;382.21;-2.80
86.4168;374.39;-5.14
86.4950;366.57;-0.85
86.5732;358.75;-2.80
86.6515;350.93;-3.19
86.7297;343.11;-2.02
86.8079;335.29;-2.02
86.8861;327.47;-7.87
86.9643;319.65;-7.48
87.0425;311.83;-8.26
87.1208;304.01;-5.14
87.1990;296.19;-3.19
87.2772;288.37;-3.19
87.3554;280.55;-3.97
87.4336;272.73;-1.24
87.5118;264.91;-0.85
87.5901;257.09;-4.36
87.6683;249.27;-0.46
87.7465;241.45;0.32
87.8247;233.63;1.10
87.9029;225.81;-1.63
87.9811;217.99;-2.02
88.0594;210.17;2.27
88.1376;202.35;1.88
88.2158;194.53;-0.46
88.2940;186.71;2.27
88.3722;178.89;2.66
88.4504;171.07;-0.85
88.5287;163.25;3.05
88.6069;155.43;1.88
88.6851;147.61;-1.24
88.7633;139.79;-1.24
88.8415;131.97;2.66
88.9197;124.15;-0.46
88.9980;116.33;-2.80
89.0762;108.51;2.27
89.1544;100.69;-2.02
89.2326;92.87;2.27
89.3108;85.05;-2.02
89.3890;77.23;1.49
89.4673;69.41;1.10
89.5455;61.59;1.10
89.6237;53.77;1.10
89.7019;45.95;1.10
89.7801;38.13;-2.41
89.8583;30.31;1.49
89.9366;22.49;-0.07
90.0148;14.67;1.49
90.0930;6.85;-2.80
90.1712;-0.97;3.05
90.2494;-8.79;1.10
90.3276;-16.61;-2.41
90.4059;-24.43;2.27
90.4841;-32.25;-3.19
90.5623;-40.07;1.10
90.6405;-47.89;-1.24
90.7187;-55.71;-4.36
90.7969;-63.53;-0.85
90.8752;-71.35;-1.63
90.9534;-79.17;2.27
91.0316;-86.99;1.49
91.1098;-94.81;-1.63
91.1880;-102.63;2.27
91.2662;-110.45;1.49
91.3445;-118.27;-0.07
91.4227;-126.09;-0.46
91.5009;-133.91;-0.07
91.5791;-141.74;3.83
91.6573;-149.56;1.49
91.7355;-157.38;-0.07
91.8138;-165.20;5.00
91.8920;-173.02;4.22
91.9702;-180.84;1.10
92.0484;-188.66;5.39
92.1266;-196.48;5.00
92.2048;-204.30;1.88
92.2831;-212.12;3.05
92.3613;-219.94;4.61
92.4395;-227.76;2.66
92.5177;-235.58;3.05
92.5959;-243.40;3.44
92.6741;-251.22;3.83
92.7524;-259.04;3.44
92.8306;-266.86;3.83
92.9088;-274.68;6.17
92.9870;-282.50;4.61
93.0652;-290.32;4.61
93.1434;-298.14;5.39
93.2217;-305.96;4.61
93.2999;-313.78;5.78
93.3781;-321.60;6.56
93.4563;-329.42;8.12
93.5345;-337.24;3.44
93.6127;-345.06;4.22
93.6910;-352.88;5.39
93.7692;-360.70;4.22
93.8474;-368.52;4.22
93.9256;-376.34;8.51
94.0038;-384.16;7.73
94.0820;-391.98;7.73
94.1603;-399.80;8.12
94.2385;-407.62;5.00
94.3167;-415.44;8.12
94.3949;-423.26;3.44
94.4731;-431.08;4.61
94.5513;-438.90;3.05
94.6296;-446.72;4.22
94.7078;-454.54;3.83
94.7860;-462.36;3.05
94.8642;-470.18;4.61
94.9424;-478.00;-0.46
95.0206;-485.82;-0.85
95.0988;-493.64;1.10
95.1771;-501.46;1.49
95.2553;-509.28;1.49
95.3335;-517.10;1.88
95.4117;-524.92;-4.75
95.4899;-532.74;-8.26
95.5681;-540.56;-6.31
95.6464;-548.38;-6.70
95.7246;-556.20;-12.16
95.8028;-564.02;-14.11
95.8810;-571.84;-15.28
95.9592;-579.66;-17.23
96.0374;-587.48;-15.67
96.1157;-595.30;-20.74
96.1939;-603.12;-21.13
96.2721;-610.94;-23.47
96.3503;-618.76;-22.30
96.4285;-626.58;-26.20
96.5067;-634.40;-26.98
96.5850;-642.22;-25.42
96.6632;-650.04;-24.64
96.7414;-657.86;-25.42
96.8196;-665.68;-24.25
96.8978;-673.50;-29.32
96.9760;-681.32;-26.20
97.0543;-689.14;-26.59
97.1325;-696.96;-28.15
97.2107;-704.79;-24.25
97.2889;-712.61;-25.03
97.3671;-720.43;-25.81
97.4453;-728.25;-21.52
97.5236;-736.07;-26.98
97.6018;-743.89;-25.03
97.6800;-751.71;-25.42
97.7582;-759.53;-25.03
97.8364;-767.35;-24.64
97.9146;-775.17;-21.91
97.9929;-782.99;-24.64
98.0711;-790.81;-18.79
98.1493;-798.63;-22.69
98.2275;-806.45;-21.52
98.3057;-814.27;-21.13
98.3839;-822.09;-21.91
98.4622;-829.91;-22.69
98.5404;-837.73;-21.91
98.6186;-845.55;-21.13
98.6968;-853.37;-20.74
98.7750;-861.19;-20.35
98.8532;-869.01;-19.96
98.9315;-876.83;-21.91
99.0097;-884.65;-18.01
99.0879;-892.47;-22.30
99.1661;-900.29;-21.13
99.2443;-908.11;-25.42
99.3225;-915.93;-22.30
99.4008;-923.75;-20.35
99.4790;-931.57;-22.69
99.5572;-939.39;-22.69
99.6354;-947.21;-24.25
99.7136;-955.03;-23.86
99.7918;-962.85;-26.20
99.8701;-970.67;-23.86
99.9483;-978.49;-28.15
100.0265;-986.31;-28.54
100.1047;-994.13;-29.32
100.1829;-988.26;-23.86
100.2611;-980.44;-22.69
100.3394;-972.62;-19.57
100.4176;-964.80;-15.67
100.4958;-956.98;-13.33
100.5740;-949.16;-8.65
100.6522;-941.34;-8.65
100.7304;-933.52;-2.80
100.8087;-925.70;-7.09
100.8869;-917.88;-0.85
100.9651;-910.06;-0.46
101.0433;-902.24;-0.85
101.1215;-894.42;0.32
101.1997;-886.60;3.83
101.2780;-878.78;-1.63
101.3562;-870.96;7.34
101.4344;-863.14;5.00
101.5126;-855.32;5.78
101.5908;-847.50;6.95
101.6690;-839.68;6.95
101.7473;-831.86;8.90
101.8255;-824.04;13.19
101.9037;-816.22;8.51
101.9819;-808.40;10.07
102.0601;-800.58;10.46
102.1383;-792.76;12.02
102.2166;-784.94;11.24
102.2948;-777.12;11.63
102.3730;-769.30;13.19
102.4512;-761.48;13.19
102.5294;-753.66;14.75
102.6076;-745.84;17.48
102.6859;-738.02;14.36
102.7641;-730.20;14.36
102.8423;-722.38;13.19
102.9205;-714.56;14.36
102.9987;-706.74;15.92
103.0769;-698.92;20.99
103.1552;-691.10;14.75
103.2334;-683.28;15.53
103.3116;-675.46;18.65
103.3898;-667.64;17.87
103.4680;-659.82;19.82
103.5462;-652.00;21.38
103.6245;-644.18;21.38
103.7027;-636.36;21.38
103.7809;-628.54;23.72
103.8591;-620.72;28.40
103.9373;-612.90;22.94
104.0155;-605.08;26.84
104.0938;-597.26;29.96
104.1720;-589.44;31.13
104.2502;-581.62;33.08
104.3284;-573.80;34.64
104.4066;-565.98;40.10
104.4848;-558.16;36.98
104.5631;-550.34;44.78
104.6413;-542.52;43.61
104.7195;-534.70;44.78
104.7977;-526.88;46.73
104.8759;-519.06;47.51
104.9541;-511.24;46.34
105.0324;-503.42;51.80
105.1106;-495.60;53.75
105.1888;-487.78;56.09
105.2670;-479.96;53.75
105.3452;-472.14;55.70
105.4234;-464.32;54.14
105.5017;-456.50;54.53
105.5799;-448.68;58.43
105.6581;-440.86;54.53
105.7363;-433.04;54.53
105.8145;-425.22;58.43
105.8927;-417.39;54.92
105.9710;-409.57;56.87
106.0492;-401.75;57.65
106.1274;-393.93;54.14
106.2056;-386.11;52.58
106.2838;-378.29;55.70
106.3620;-370.47;52.19
106.4402;-362.65;52.58
106.5185;-354.83;50.63
106.5967;-347.01;50.24
106.6749;-339.19;54.53
106.7531;-331.37;49.07
106.8313;-323.55;50.24
106.9095;-315.73;48.68
106.9878;-307.91;51.41
107.0660;-300.09;51.80
107.1442;-292.27;46.73
107.2224;-284.45;47.90
107.3006;-276.63;45.56
107.3788;-268.81;48.29
107.4571;-260.99;45.17
107.5353;-253.17;44.78
107.6135;-245.35;47.51
107.6917;-237.53;42.83
107.7699;-229.71;43.61
107.8481;-221.89;45.56
107.9264;-214.07;42.05
108.0046;-206.25;46.34
108.0828;-198.43;41.66
108.1610;-190.61;44.00
108.2392;-182.79;40.10
108.3174;-174.97;44.39
108.3957;-167.15;39.32
108.4739;-159.33;39.32
108.5521;-151.51;42.44
108.6303;-143.69;37.76
108.7085;-135.87;38.54
108.7867;-128.05;39.71
108.8650;-120.23;37.76
108.9432;-112.41;39.71
109.0214;-104.59;35.42
109.0996;-96.77;37.76
109.1778;-88.95;40.49
109.2560;-81.13;36.98
109.3343;-73.31;39.32
109.4125;-65.49;37.37
109.4907;-57.67;33.47
109.5689;-49.85;37.76
109.6471;-42.03;36.59
109.7253;-34.21;37.37
109.8036;-26.39;32.69
109.8818;-18.57;36.98
109.9600;-10.75;36.20
110.0382;-2.93;35.81
110.1164;4.89;33.08
110.1946;12.71;35.03
110.2729;20.53;34.25
110.3511;28.35;34.25
110.4293;36.17;31.52
110.5075;43.99;33.86
110.5857;51.81;34.64
110.6639;59.63;34.25
110.7422;67.45;35.42
110.8204;75.27;34.25
110.8986;83.09;34.64
110.9768;90.91;32.69
111.0550;98.73;32.69
111.1332;106.55;30.35
111.2115;114.37;30.74
111.2897;122.19;33.47
111.3679;130.01;35.42
111.4461;137.83;32.30
111.5243;145.65;38.15
111.6025;153.48;35.03
111.6808;161.30;32.30
111.7590;169.12;33.47
111.8372;176.94;36.98
111.9154;184.76;33.08
111.9936;192.58;34.64
112.0718;200.40;38.93
112.1501;208.22;35.42
112.2283;216.04;39.32
112.3065;223.86;41.66
112.3847;231.68;40.49
112.4629;239.50;37.76
112.5411;247.32;42.44
112.6194;255.14;40.49
112.6976;262.96;44.39
112.7758;270.78;44.39
112.8540;278.60;45.95
112.9322;286.42;47.12
113.0104;294.24;45.56
113.0887;302.06;44.78
113.1669;309.88;46.34
113.2451;317.70;46.73
113.3233;325.52;50.63
113.4015;333.34;48.68
113.4797;341.16;53.75
113.5580;348.98;49.85
113.6362;356.80;56.09
113.7144;364.62;52.58
113.7926;372.44;57.65
113.8708;380.26;55.31
113.9490;388.08;61.55
114.0273;395.90;57.65
114.1055;403.72;62.72
114.1837;411.54;65.06
114.2619;419.36;62.72
114.3401;427.18;67.40
114.4183;435.00;68.57
114.4966;442.82;67.79
114.5748;450.64;73.25
114.6530;458.46;74.42
114.7312;466.28;75.20
114.8094;474.10;77.54
114.8876;481.92;76.37
114.9659;489.74;76.76
115.0441;497.56;83.78
115.1223;505.38;83.78
115.2005;513.20;87.68
115.2787;521.02;88.85
115.3569;528.84;90.41
115.4352;536.66;92.75
115.5134;544.48;94.70
115.5916;552.30;95.48
115.6698;560.12;97.04
115.7480;567.94;96.26
115.8262;575.76;100.94
115.9045;583.58;103.67
115.9827;591.40;104.84
116.0609;599.22;107.18
116.1391;607.04;107.57
116.2173;614.86;109.52
116.2955;622.68;111.08
116.3738;630.50;110.30
116.4520;638.32;114.59
116.5302;646.14;116.54
116.6084;653.96;116.93
116.6866;661.78;118.88
116.7648;669.60;119.66
116.8431;677.42;122.78
116.9213;685.24;121.61
116.9995;693.06;123.95
117.0777;700.88;122.00
117.1559;708.70;126.29
117.2341;716.52;127.46
117.3124;724.35;122.78
117.3906;732.17;127.85
117.4688;739.99;128.24
117.5470;747.81;130.19
117.6252;755.63;130.19
117.7034;763.45;132.14
117.7817;771.27;129.02
117.8599;779.09;132.14
117.9381;786.91;132.92
118.0163;794.73;134.48
118.0945;802.55;134.48
118.1727;810.37;134.87
118.2509;818.19;136.04
118.3292;826.01;136.82
118.4074;833.83;137.60
118.4856;841.65;137.60
118.5638;849.47;139.55
118.6420;857.29;137.60
118.7202;865.11;141.50
118.7985;872.93;143.06
118.8767;880.75;143.45
118.9549;888.57;145.01
119.0331;896.39;145.79
119.1113;904.21;146.57
119.1895;912.03;150.08
119.2678;919.85;150.86
119.3460;927.67;153.20
119.4242;935.49;155.15
119.5024;943.31;157.10
119.5806;951.13;159.83
119.6588;958.95;161.78
119.7371;966.77;164.12
119.8153;974.59;166.07
119.8935;982.41;167.24
119.9717;990.23;168.80
120.0499;998.05;171.14
120.1281;1005.87;172.31

Acquisition complétée
