=~=~=~=~=~=~=~=~=~=~=~= PuTTY log 2025.04.09 15:40:09 =~=~=~=~=~=~=~=~=~=~=~=
Choisissez la methode :
1 - Chronoamperometrie
2 - Voltammetrie cyclique
Methode selectionnee : Chronoamperometrie
Entrez E1 (en Volts) :
Entrez E2 (en Volts) :
Entrez le temps de transition (en secondes) :
Parametres enregistres.
E1 = 0.00 V, E2 = 0.00 V, Vitesse = 10.00 s
Entrez le facteur d'affichage (valeur par défaut = 1, valeur utilisée pour les mesures = 4) :
Facteur d'affichage choisi : 4
Entrez 'ok' pour commencer l'expérience.
Debut
Temps (s) tension (mV) courant (uA)
0.000000;0;70.13
0.026000;0;-198.97
0.045000;0;-198.97
0.063000;0;-198.97
0.082000;0;-198.97
0.101000;0;-198.97
0.120000;0;-198.97
0.140000;0;-198.97
0.160000;0;-198.97
0.180000;0;-198.97
0.199000;0;-198.97
0.220000;0;-198.97
0.239000;0;-198.97
0.259000;0;-198.97
0.279000;0;-198.97
0.298000;0;-198.97
0.318000;0;-198.97
0.337000;0;-198.97
0.358000;0;-198.97
0.377000;0;-198.97
0.397000;0;-198.97
0.417000;0;-198.97
0.437000;0;-198.97
0.456000;0;-198.97
0.476000;0;-198.97
0.496000;0;-198.97
0.516000;0;-198.97
0.535000;0;-198.97
0.555000;0;-198.97
0.575000;0;-198.97
0.594000;0;-198.97
0.615000;0;-198.97
0.634000;0;-198.97
0.654000;0;-198.97
0.673000;0;-198.97
0.694000;0;-198.97
0.713000;0;-198.97
0.733000;0;-198.97
0.753000;0;-198.97
0.773000;0;-198.97
0.792000;0;-198.97
0.813000;0;-198.97
0.832000;0;-198.97
0.851000;0;-198.97
0.871000;0;-198.97
0.891000;0;-198.97
0.911000;0;-198.97
0.930000;0;-198.97
0.951000;0;-198.97
0.970000;0;-192.34
0.990000;0;-183.37
1.010000;0;-177.13
1.031000;0;-178.69
1.051000;0;-167.77
1.072000;0;-165.43
1.093000;0;-165.43
1.114000;0;-157.63
1.134000;0;-160.36
1.156000;0;-150.22
1.176000;0;-155.68
1.197000;0;-145.93
1.218000;0;-139.69
1.238000;0;-135.40
1.259000;0;-142.81
1.280000;0;-135.79
1.301000;0;-127.21
1.321000;0;-132.28
1.343000;0;-124.09
1.363000;0;-128.38
1.384000;0;-121.36
1.404000;0;-124.48
1.426000;0;-115.12
1.446000;0;-118.24
1.467000;0;-111.61
1.488000;0;-114.34
1.509000;0;-112.00
1.529000;0;-104.20
1.551000;0;-108.10
1.571000;0;-100.69
1.592000;0;-107.71
1.613000;0;-99.91
1.633000;0;-96.40
1.652000;0;-94.45
1.672000;0;-94.84
1.692000;0;-99.91
1.712000;0;-98.74
1.731000;0;-97.96
1.752000;0;-95.23
1.771000;0;-94.45
1.790000;0;-94.45
1.811000;0;-90.16
1.830000;0;-83.92
1.850000;0;-83.92
1.869000;0;-88.60
1.890000;0;-81.58
1.909000;0;-79.24
1.929000;0;-80.41
1.949000;0;-78.46
1.969000;0;-81.97
1.988000;0;-81.97
2.009000;0;-78.46
2.028000;0;-78.07
2.047000;0;-77.29
2.067000;0;-77.29
2.087000;0;-73.39
2.107000;0;-71.05
2.126000;0;-68.71
2.147000;0;-66.76
2.166000;0;-65.98
2.186000;0;-67.54
2.205000;0;-73.39
2.226000;0;-71.05
2.245000;0;-67.93
2.265000;0;-71.44
2.285000;0;-68.32
2.304000;0;-67.93
2.324000;0;-63.25
2.344000;0;-59.35
2.364000;0;-60.13
2.383000;0;-57.79
2.403000;0;-60.13
2.423000;0;-58.96
2.443000;0;-64.03
2.462000;0;-63.25
2.483000;0;-57.40
2.502000;0;-59.35
2.522000;0;-61.30
2.542000;0;-63.25
2.561000;0;-58.57
2.581000;0;-53.11
2.600000;0;-56.62
2.621000;0;-51.94
2.640000;0;-48.82
2.660000;0;-51.94
2.680000;0;-51.94
2.700000;0;-54.28
2.719000;0;-52.72
2.739000;0;-52.72
2.759000;0;-52.33
2.779000;0;-53.89
2.798000;0;-51.55
2.819000;0;-51.16
2.838000;0;-44.53
2.857000;0;-43.75
2.878000;0;-44.92
2.897000;0;-44.14
2.917000;0;-43.36
2.936000;0;-44.14
2.957000;0;-47.65
2.976000;0;-48.43
2.996000;0;-48.04
3.016000;0;-47.65
3.036000;0;-46.09
3.055000;0;-44.92
3.076000;0;-40.63
3.095000;0;-39.07
3.114000;0;-40.24
3.134000;0;-41.80
3.154000;0;-38.68
3.174000;0;-36.73
3.193000;0;-36.73
3.214000;0;-37.51
3.233000;0;-40.63
3.253000;0;-42.19
3.273000;0;-41.80
3.293000;0;-40.24
3.312000;0;-40.63
3.332000;0;-40.63
3.352000;0;-32.83
3.371000;0;-32.83
3.391000;0;-32.83
3.411000;0;-32.05
3.431000;0;-33.22
3.450000;0;-37.51
3.470000;0;-38.29
3.490000;0;-36.73
3.510000;0;-38.29
3.529000;0;-36.34
3.550000;0;-35.56
3.569000;0;-35.56
3.589000;0;-29.71
3.609000;0;-28.93
3.629000;0;-29.71
3.648000;0;-29.32
3.667000;0;-29.32
3.688000;0;-27.37
3.707000;0;-34.00
3.727000;0;-34.00
3.747000;0;-28.15
3.767000;0;-32.83
3.786000;0;-31.66
3.807000;0;-31.66
3.826000;0;-30.49
3.846000;0;-24.64
3.865000;0;-32.05
3.886000;0;-25.42
3.905000;0;-25.42
3.924000;0;-25.42
3.945000;0;-24.64
3.964000;0;-30.49
3.984000;0;-28.54
4.004000;0;-23.86
4.024000;0;-29.32
4.043000;0;-28.15
4.063000;0;-28.54
4.083000;0;-23.08
4.103000;0;-21.91
4.122000;0;-22.30
4.143000;0;-21.52
4.162000;0;-21.52
4.181000;0;-21.91
4.201000;0;-22.69
4.221000;0;-24.64
4.241000;0;-28.15
4.260000;0;-26.98
4.281000;0;-25.81
4.300000;0;-25.03
4.320000;0;-26.98
4.340000;0;-20.35
4.360000;0;-20.35
4.379000;0;-20.35
4.399000;0;-19.96
4.419000;0;-17.23
4.438000;0;-17.62
4.458000;0;-22.30
4.478000;0;-19.18
4.498000;0;-25.03
4.517000;0;-22.69
4.538000;0;-24.64
4.557000;0;-22.30
4.577000;0;-23.08
4.596000;0;-24.64
4.617000;0;-17.23
4.636000;0;-15.28
4.656000;0;-14.50
4.676000;0;-14.50
4.696000;0;-15.67
4.715000;0;-22.30
4.734000;0;-23.08
4.755000;0;-20.74
4.774000;0;-21.13
4.794000;0;-20.74
4.814000;0;-19.57
4.834000;0;-18.79
4.853000;0;-15.28
4.874000;0;-14.11
4.893000;0;-13.72
4.913000;0;-14.11
4.932000;0;-14.89
4.953000;0;-13.72
4.972000;0;-17.23
4.991000;0;-19.18
5.012000;0;-13.72
5.031000;0;-18.01
5.051000;0;-18.79
5.071000;0;-17.62
5.091000;0;-12.16
5.110000;0;-12.55
5.130000;0;-12.16
5.150000;0;-10.60
5.170000;0;-12.16
5.189000;0;-12.55
5.210000;0;-10.99
5.229000;0;-16.84
5.248000;0;-16.45
5.269000;0;-11.38
5.288000;0;-14.89
5.308000;0;-16.45
5.327000;0;-16.45
5.348000;0;-9.82
5.366000;0;-15.67
5.386000;0;-15.67
5.406000;0;-14.89
5.426000;0;-14.89
5.445000;0;-9.43
5.464000;0;-13.33
5.484000;0;-15.67
5.503000;0;-13.72
5.523000;0;-13.72
5.543000;0;-14.89
5.563000;0;-8.65
5.581000;0;-14.11
5.601000;0;-12.55
5.621000;0;-8.26
5.640000;0;-14.11
5.659000;0;-14.11
5.680000;0;-14.11
5.699000;0;-13.33
5.718000;0;-7.87
5.738000;0;-12.94
5.757000;0;-10.99
5.777000;0;-12.94
5.796000;0;-13.33
5.817000;0;-5.14
5.835000;0;-12.94
5.855000;0;-11.38
5.875000;0;-12.16
5.895000;0;-10.60
5.914000;0;-5.14
5.933000;0;-12.55
5.953000;0;-12.16
5.972000;0;-10.60
5.992000;0;-6.31
6.011000;0;-11.77
6.031000;0;-11.77
6.050000;0;-11.38
6.071000;0;-10.60
6.090000;0;-4.75
6.109000;0;-11.77
6.128000;0;-10.99
6.149000;0;-10.21
6.168000;0;-8.65
6.186000;0;-10.60
6.207000;0;-10.21
6.226000;0;-11.38
6.246000;0;-9.82
6.264000;0;-10.21
6.285000;0;-10.21
6.304000;0;-8.26
6.323000;0;-2.80
6.342000;0;-8.65
6.361000;0;-9.43
6.379000;0;-9.43
6.397000;0;-3.19
6.417000;0;-3.97
6.435000;0;-9.43
6.454000;0;-3.58
6.473000;0;-3.19
6.492000;0;-9.04
6.510000;0;-9.04
6.528000;0;-4.75
6.548000;0;-8.26
6.566000;0;-8.26
6.585000;0;-2.02
6.604000;0;-0.85
6.623000;0;-7.09
6.641000;0;-1.63
6.660000;0;-6.70
6.679000;0;-7.87
6.697000;0;-8.26
6.716000;0;-0.07
6.735000;0;-7.48
6.754000;0;-6.70
6.772000;0;-0.46
6.791000;0;-2.02
6.810000;0;-7.48
6.829000;0;-6.70
6.847000;0;-0.46
6.865000;0;-7.09
6.885000;0;-6.70
6.903000;0;-1.24
6.922000;0;-0.07
6.941000;0;-6.70
6.960000;0;-0.07
6.978000;0;-0.46
6.996000;0;-6.70
7.016000;0;-5.92
7.034000;0;-0.85
7.053000;0;0.71
7.071000;0;0.71
7.089000;0;-5.92
7.107000;0;1.10
7.124000;0;-5.53
7.144000;0;-0.46
7.162000;0;1.49
7.180000;0;-0.46
7.199000;0;-5.14
7.218000;0;-4.75
7.236000;0;-5.53
7.254000;0;1.10
7.273000;0;-5.14
7.291000;0;0.71
7.309000;0;-5.14
7.327000;0;1.88
7.346000;0;-5.53
7.364000;0;1.10
7.381000;0;-3.97
7.401000;0;1.49
7.418000;0;-4.36
7.437000;0;2.27
7.454000;0;-4.36
7.474000;0;-4.36
7.492000;0;1.88
7.509000;0;-3.58
7.528000;0;1.88
7.546000;0;-3.58
7.565000;0;2.27
7.582000;0;-2.80
7.602000;0;2.27
7.619000;0;-3.58
7.637000;0;3.44
7.655000;0;-3.58
7.674000;0;2.66
7.692000;0;-2.41
7.710000;0;1.88
7.728000;0;-2.80
7.747000;0;-1.24
7.765000;0;4.61
7.783000;0;-2.80
7.802000;0;3.83
7.820000;0;-3.19
7.838000;0;2.66
7.856000;0;-2.80
7.875000;0;3.44
7.892000;0;-2.02
7.911000;0;3.05
7.928000;0;3.44
7.947000;0;4.22
7.964000;0;4.22
7.982000;0;-2.02
8.001000;0;4.61
8.018000;0;-2.41
8.037000;0;3.83
8.054000;0;-1.24
8.074000;0;4.22
8.091000;0;-2.02
8.110000;0;-1.63
8.128000;0;5.00
8.146000;0;-1.24
8.165000;0;4.61
8.182000;0;-0.85
8.202000;0;4.22
8.219000;0;-1.63
8.238000;0;5.39
8.255000;0;-0.85
8.274000;0;5.78
8.292000;0;-0.46
8.310000;0;5.78
8.328000;0;-1.24
8.347000;0;6.17
8.365000;0;-0.85
8.383000;0;1.10
8.401000;0;-1.24
8.420000;0;-0.07
8.438000;0;5.78
8.456000;0;-0.46
8.475000;0;5.39
8.493000;0;0.71
8.510000;0;-0.46
8.528000;0;-0.85
8.548000;0;5.78
8.565000;0;-0.07
8.584000;0;5.39
8.602000;0;6.95
8.619000;0;6.95
8.637000;0;6.56
8.654000;0;0.32
8.673000;0;6.95
8.690000;0;6.56
8.708000;0;-0.46
8.726000;0;6.56
8.744000;0;1.10
8.762000;0;5.78
8.779000;0;5.39
8.798000;0;0.71
8.815000;0;6.56
8.832000;0;5.78
8.850000;0;1.10
8.868000;0;8.51
8.886000;0;5.00
8.903000;0;1.49
8.921000;0;6.95
8.939000;0;7.73
8.956000;0;1.10
8.974000;0;7.73
8.991000;0;7.73
9.010000;0;0.71
9.027000;0;7.34
9.044000;0;6.95
9.063000;0;1.10
9.080000;0;7.34
9.098000;0;6.95
9.115000;0;2.27
9.134000;0;6.95
9.151000;0;6.95
9.168000;0;2.27
9.186000;0;8.51
9.204000;0;8.12
9.222000;0;1.49
9.239000;0;8.12
9.256000;0;8.12
9.275000;0;1.88
9.292000;0;7.73
9.310000;0;6.95
9.327000;0;1.49
9.345000;0;7.73
9.363000;0;7.73
9.380000;0;3.44
9.399000;0;7.73
9.416000;0;8.51
9.434000;0;1.88
9.451000;0;7.34
9.469000;0;8.12
9.487000;0;3.44
9.504000;0;8.12
9.522000;0;8.12
9.540000;0;3.44
9.557000;0;7.73
9.575000;0;6.95
9.592000;0;3.05
9.611000;0;9.29
9.628000;0;8.12
9.646000;0;3.44
9.664000;0;3.83
9.681000;0;7.73
9.699000;0;3.05
9.716000;0;8.90
9.735000;0;8.90
9.752000;0;2.66
9.769000;0;9.29
9.787000;0;9.29
9.805000;0;3.05
9.823000;0;8.90
9.840000;0;8.12
9.857000;0;2.66
9.876000;0;9.29
9.893000;0;8.51
9.911000;0;4.22
9.929000;0;2.66
9.947000;0;8.90
9.964000;0;3.05
9.981000;0;8.90
10.000000;0;8.90
10.018000;0;3.44
10.037000;0;6.56
10.055000;0;10.07
10.076000;0;2.66
10.094000;0;9.29
10.112000;0;9.68
10.132000;0;3.44
10.150000;0;9.68
10.169000;0;9.68
10.187000;0;3.83
10.207000;0;3.83
10.225000;0;9.29
10.244000;0;7.34
10.263000;0;9.29
10.281000;0;10.85
10.301000;0;12.41
10.320000;0;10.07
10.341000;0;3.83
10.359000;0;9.68
10.378000;0;10.07
10.398000;0;5.00
10.417000;0;3.83
10.435000;0;3.83
10.453000;0;8.51
10.473000;0;4.61
10.491000;0;4.22
10.510000;0;10.85
10.530000;0;9.68
10.549000;0;10.46
10.568000;0;10.46
10.588000;0;11.63
10.608000;0;10.46
10.628000;0;10.07
10.647000;0;5.00
10.666000;0;8.12
10.685000;0;5.39
10.703000;0;5.39
10.722000;0;10.85
10.742000;0;10.07
10.762000;0;5.78
10.780000;0;12.02
10.801000;0;10.07
10.820000;0;11.24
10.840000;0;11.24
10.860000;0;10.46
10.879000;0;5.39
10.898000;0;10.85
10.917000;0;11.24
10.938000;0;12.02
10.957000;0;6.95
10.976000;0;11.63
10.996000;0;10.85
11.016000;0;12.41
11.035000;0;6.17
11.054000;0;10.85
11.074000;0;12.41
11.093000;0;10.85
11.113000;0;10.85
11.133000;0;11.24
11.153000;0;6.17
11.171000;0;11.63
11.191000;0;10.85
11.211000;0;10.85
11.231000;0;5.00
11.249000;0;11.63
11.270000;0;12.41
11.289000;0;12.80
11.309000;0;12.80
11.329000;0;5.39
11.347000;0;13.19
11.367000;0;11.63
11.386000;0;12.41
11.407000;0;6.56
11.425000;0;12.02
11.445000;0;12.80
11.465000;0;11.63
11.485000;0;12.02
11.504000;0;6.95
11.523000;0;12.02
11.543000;0;11.63
11.562000;0;12.02
11.582000;0;11.63
11.602000;0;6.56
11.621000;0;12.02
11.640000;0;13.19
11.661000;0;12.41
11.680000;0;13.58
11.700000;0;7.34
11.718000;0;13.19
11.739000;0;12.80
11.758000;0;12.41
11.777000;0;8.12
11.797000;0;12.41
11.816000;0;12.80
11.836000;0;13.97
11.855000;0;13.58
11.876000;0;7.73
11.894000;0;12.41
11.914000;0;12.80
11.934000;0;12.02
11.954000;0;13.19
11.973000;0;6.56
11.993000;0;12.80
12.012000;0;12.02
12.031000;0;12.41
12.051000;0;12.41
12.071000;0;8.51
12.090000;0;13.19
12.109000;0;12.41
12.130000;0;13.19
12.149000;0;8.12
12.168000;0;13.19
12.187000;0;13.97
12.208000;0;13.19
12.227000;0;12.80
12.246000;0;8.12
12.266000;0;6.95
12.284000;0;7.34
12.303000;0;6.95
12.321000;0;14.75
12.342000;0;13.19
12.361000;0;8.90
12.380000;0;12.80
12.400000;0;13.58
12.420000;0;13.19
12.439000;0;12.80
12.459000;0;13.19
12.479000;0;8.12
12.497000;0;13.97
12.517000;0;13.19
12.537000;0;13.97
12.557000;0;8.12
12.575000;0;13.19
12.596000;0;13.58
12.615000;0;14.75
12.635000;0;14.36
12.654000;0;13.58
12.675000;0;8.12
12.693000;0;13.19
12.712000;0;13.19
12.733000;0;13.97
12.752000;0;8.12
12.771000;0;13.97
12.791000;0;13.19
12.811000;0;13.19
12.830000;0;7.73
12.849000;0;14.75
12.869000;0;15.14
12.889000;0;13.58
12.908000;0;13.58
12.928000;0;15.92
12.948000;0;8.12
12.966000;0;13.97
12.986000;0;13.97
13.006000;0;14.75
13.026000;0;8.51
13.044000;0;15.53
13.065000;0;13.97
13.084000;0;14.36
13.104000;0;10.85
13.124000;0;13.19
13.144000;0;8.90
13.162000;0;14.75
13.181000;0;13.19
13.202000;0;8.90
13.220000;0;14.75
13.240000;0;13.97
13.260000;0;13.97
13.280000;0;14.36
13.299000;0;8.12
13.318000;0;15.92
13.338000;0;14.36
13.358000;0;13.97
13.377000;0;16.31
13.397000;0;14.36
13.417000;0;8.51
13.435000;0;15.92
13.456000;0;14.36
13.475000;0;10.85
13.495000;0;8.90
13.513000;0;14.75
13.534000;0;15.14
13.553000;0;14.75
13.573000;0;8.51
13.592000;0;14.75
13.611000;0;14.75
13.631000;0;13.97
13.650000;0;14.75
13.671000;0;8.12
13.689000;0;14.36
13.709000;0;14.75
13.729000;0;14.75
13.749000;0;15.92
13.768000;0;9.68
13.787000;0;17.48
13.807000;0;15.14
13.827000;0;14.75
13.846000;0;10.46
13.866000;0;8.51
13.885000;0;15.92
13.904000;0;15.53
13.925000;0;13.58
13.944000;0;9.68
13.963000;0;15.92
13.982000;0;14.36
14.003000;0;15.53
14.022000;0;15.14
14.042000;0;10.46
14.062000;0;9.29
14.080000;0;16.70
14.100000;0;16.70
14.119000;0;16.31
14.140000;0;9.68
14.158000;0;15.53
14.178000;0;15.14
14.198000;0;15.14
14.218000;0;11.24
14.237000;0;9.29
14.257000;0;15.53
14.276000;0;16.31
14.296000;0;15.53
14.315000;0;15.92
14.335000;0;11.24
14.355000;0;9.29
14.373000;0;15.14
14.394000;0;15.53
14.413000;0;9.68
14.432000;0;15.14
14.451000;0;15.92
14.472000;0;15.92
14.491000;0;16.31
14.511000;0;10.46
14.531000;0;10.07
14.550000;0;9.68
14.569000;0;15.14
14.589000;0;16.70
14.609000;0;9.68
14.627000;0;15.53
14.647000;0;15.92
14.667000;0;15.53
14.687000;0;11.63
14.706000;0;10.07
14.727000;0;11.63
14.746000;0;10.85
14.766000;0;9.68
14.784000;0;17.48
14.804000;0;9.68
14.823000;0;16.31
14.842000;0;15.92
14.863000;0;15.53
14.882000;0;9.68
14.901000;0;15.92
14.921000;0;15.53
14.941000;0;15.53
14.960000;0;12.41
14.980000;0;15.92
15.000000;0;10.46

Acquisition complétée
