=~=~=~=~=~=~=~=~=~=~=~= PuTTY log 2025.04.09 16:04:09 =~=~=~=~=~=~=~=~=~=~=~=
Choisissez la methode :
1 - Chronoamperometrie
2 - Voltammetrie cyclique
Methode selectionnee : Voltammetrie cyclique
Entrez E1 (en Volts) :
Entrez E2 (en Volts) :
Entrez la vitesse de balayage (en V/s) :
Entrez le nombre de cycles :
Parametres enregistres.
E1 = -1.00 V, E2 = 1.00 V, Vitesse = 0.10 V/s
Cycles = 3.00
Entrez le facteur d'affichage (valeur par défaut = 1, valeur utilisée pour les mesures = 4) :
Facteur d'affichage choisi : 4
Entrez 'ok' pour commencer l'expérience.
Debut
Temps (s) tension (mV) courant (uA)
0.0782;1000.00;49.07
0.1564;992.18;47.90
0.2346;984.36;46.73
0.3128;976.54;46.34
0.3910;968.72;44.78
0.4692;960.90;44.00
0.5474;953.08;43.61
0.6256;945.26;42.83
0.7038;937.44;42.05
0.7820;929.62;42.05
0.8602;921.80;40.88
0.9384;913.98;40.88
1.0166;906.16;40.10
1.0948;898.34;39.71
1.1730;890.52;36.59
1.2512;882.70;32.30
1.3294;874.88;38.93
1.4076;867.06;38.54
1.4858;859.24;37.76
1.5640;851.42;37.76
1.6422;843.60;37.76
1.7204;835.78;31.91
1.7986;827.96;33.08
1.8768;820.14;36.20
1.9550;812.32;35.42
2.0332;804.50;35.03
2.1114;796.68;35.42
2.1896;788.86;34.25
2.2678;781.04;34.64
2.3460;773.22;33.86
2.4242;765.40;33.86
2.5024;757.58;33.47
2.5806;749.76;32.69
2.6588;741.94;33.47
2.7370;734.12;27.23
2.8152;726.30;28.79
2.8934;718.48;31.91
2.9716;710.66;32.30
3.0499;702.84;31.91
3.1281;695.02;31.91
3.2063;687.20;26.45
3.2845;679.38;31.13
3.3627;671.56;31.13
3.4409;663.74;31.13
3.5191;655.92;25.28
3.5973;648.10;30.35
3.6755;640.28;24.11
3.7537;632.46;23.72
3.8319;624.64;29.57
3.9101;616.82;29.18
3.9883;609.00;23.33
4.0665;601.18;28.40
4.1447;593.36;28.01
4.2229;585.54;22.94
4.3011;577.72;28.01
4.3793;569.90;27.23
4.4575;562.08;20.99
4.5357;554.26;26.45
4.6139;546.44;25.28
4.6921;538.62;26.06
4.7703;530.80;25.67
4.8485;522.98;25.28
4.9267;515.16;24.89
5.0049;507.34;19.43
5.0831;499.52;24.50
5.1613;491.70;23.72
5.2395;483.88;23.72
5.3177;476.06;22.94
5.3959;468.24;17.48
5.4741;460.42;22.94
5.5523;452.60;22.16
5.6305;444.78;22.16
5.7087;436.96;22.55
5.7869;429.13;21.77
5.8651;421.31;17.09
5.9433;413.49;21.38
6.0215;405.67;22.16
6.0997;397.85;21.38
6.1779;390.03;21.77
6.2561;382.21;20.21
6.3343;374.39;16.70
6.4125;366.57;21.77
6.4907;358.75;16.31
6.5689;350.93;15.92
6.6471;343.11;21.77
6.7253;335.29;20.99
6.8035;327.47;15.53
6.8817;319.65;15.53
6.9599;311.83;20.99
7.0381;304.01;15.53
7.1163;296.19;15.53
7.1945;288.37;20.60
7.2727;280.55;20.21
7.3509;272.73;19.82
7.4291;264.91;19.82
7.5073;257.09;19.04
7.5855;249.27;19.04
7.6637;241.45;19.04
7.7419;233.63;13.97
7.8201;225.81;12.41
7.8983;217.99;17.09
7.9765;210.17;16.70
8.0547;202.35;17.87
8.1329;194.53;9.29
8.2111;186.71;14.36
8.2893;178.89;5.00
8.3675;171.07;5.00
8.4457;163.25;3.83
8.5239;155.43;3.83
8.6021;147.61;4.22
8.6803;139.79;-4.36
8.7585;131.97;-3.19
8.8367;124.15;-5.14
8.9149;116.33;-0.85
8.9931;108.51;-3.19
9.0714;100.69;-3.19
9.1496;92.87;-2.80
9.2278;85.05;-2.41
9.3060;77.23;-0.85
9.3842;69.41;-0.07
9.4624;61.59;-5.53
9.5406;53.77;-3.58
9.6188;45.95;-3.19
9.6970;38.13;-0.07
9.7752;30.31;-2.02
9.8534;22.49;-0.85
9.9316;14.67;-0.46
10.0098;6.85;5.78
10.0880;-0.97;1.49
10.1662;-8.79;6.95
10.2444;-16.61;3.44
10.3226;-24.43;8.90
10.4008;-32.25;8.51
10.4790;-40.07;3.83
10.5572;-47.89;4.61
10.6354;-55.71;4.61
10.7136;-63.53;5.00
10.7918;-71.35;10.46
10.8700;-79.17;5.78
10.9482;-86.99;12.41
11.0264;-94.81;12.80
11.1046;-102.63;6.56
11.1828;-110.45;7.34
11.2610;-118.27;12.80
11.3392;-126.09;8.51
11.4174;-133.91;8.51
11.4956;-141.74;13.58
11.5738;-149.56;7.73
11.6520;-157.38;13.58
11.7302;-165.20;9.68
11.8084;-173.02;14.75
11.8866;-180.84;14.75
11.9648;-188.66;9.29
12.0430;-196.48;8.51
12.1212;-204.30;10.07
12.1994;-212.12;10.07
12.2776;-219.94;10.46
12.3558;-227.76;10.46
12.4340;-235.58;11.63
12.5122;-243.40;10.85
12.5904;-251.22;10.85
12.6686;-259.04;10.85
12.7468;-266.86;16.31
12.8250;-274.68;16.31
12.9032;-282.50;11.24
12.9814;-290.32;16.31
13.0596;-298.14;11.63
13.1378;-305.96;10.85
13.2160;-313.78;17.09
13.2942;-321.60;15.92
13.3724;-329.42;12.02
13.4506;-337.24;12.02
13.5288;-345.06;11.63
13.6070;-352.88;16.70
13.6852;-360.70;11.63
13.7634;-368.52;11.63
13.8416;-376.34;16.31
13.9198;-384.16;10.85
13.9980;-391.98;11.63
14.0762;-399.80;16.70
14.1544;-407.62;10.85
14.2326;-415.44;10.46
14.3108;-423.26;11.24
14.3890;-431.08;10.85
14.4672;-438.90;10.07
14.5454;-446.72;14.75
14.6236;-454.54;10.85
14.7018;-462.36;11.24
14.7800;-470.18;10.46
14.8582;-478.00;15.14
14.9364;-485.82;9.68
15.0146;-493.64;9.29
15.0929;-501.46;9.68
15.1711;-509.28;9.29
15.2493;-517.10;8.90
15.3275;-524.92;14.36
15.4057;-532.74;13.97
15.4839;-540.56;8.51
15.5621;-548.38;8.90
15.6403;-556.20;12.41
15.7185;-564.02;9.29
15.7967;-571.84;8.51
15.8749;-579.66;8.90
15.9531;-587.48;13.19
16.0313;-595.30;8.51
16.1095;-603.12;8.51
16.1877;-610.94;8.12
16.2659;-618.76;12.41
16.3441;-626.58;7.73
16.4223;-634.40;7.34
16.5005;-642.22;8.12
16.5787;-650.04;6.95
16.6569;-657.86;6.95
16.7351;-665.68;7.34
16.8133;-673.50;7.73
16.8915;-681.32;8.12
16.9697;-689.14;13.58
17.0479;-696.96;8.12
17.1261;-704.79;8.51
17.2043;-712.61;7.73
17.2825;-720.43;8.51
17.3607;-728.25;8.51
17.4389;-736.07;8.51
17.5171;-743.89;7.73
17.5953;-751.71;7.73
17.6735;-759.53;9.29
17.7517;-767.35;9.29
17.8299;-775.17;13.19
17.9081;-782.99;8.90
17.9863;-790.81;12.02
18.0645;-798.63;9.68
18.1427;-806.45;9.68
18.2209;-814.27;8.90
18.2991;-822.09;9.68
18.3773;-829.91;9.68
18.4555;-837.73;9.68
18.5337;-845.55;10.07
18.6119;-853.37;9.68
18.6901;-861.19;10.07
18.7683;-869.01;9.68
18.8465;-876.83;9.68
18.9247;-884.65;10.46
19.0029;-892.47;10.46
19.0811;-900.29;10.85
19.1593;-908.11;9.68
19.2375;-915.93;9.68
19.3157;-923.75;10.07
19.3939;-931.57;10.07
19.4721;-939.39;13.58
19.5503;-947.21;9.68
19.6285;-955.03;9.68
19.7067;-962.85;9.68
19.7849;-970.67;9.68
19.8631;-978.49;9.68
19.9413;-986.31;8.90
20.0195;-994.13;10.46
20.0977;-988.26;10.07
20.1759;-980.44;10.85
20.2541;-972.62;12.02
20.3323;-964.80;12.41
20.4105;-956.98;13.58
20.4887;-949.16;12.02
20.5669;-941.34;13.19
20.6451;-933.52;14.75
20.7233;-925.70;14.75
20.8015;-917.88;15.14
20.8797;-910.06;15.53
20.9579;-902.24;16.31
21.0361;-894.42;16.31
21.1144;-886.60;16.70
21.1926;-878.78;16.70
21.2708;-870.96;16.70
21.3490;-863.14;16.70
21.4272;-855.32;17.09
21.5054;-847.50;17.48
21.5836;-839.68;17.87
21.6618;-831.86;22.94
21.7400;-824.04;17.87
21.8182;-816.22;17.48
21.8964;-808.40;18.26
21.9746;-800.58;17.87
22.0528;-792.76;17.87
22.1310;-784.94;18.26
22.2092;-777.12;19.43
22.2874;-769.30;24.11
22.3656;-761.48;19.04
22.4438;-753.66;19.04
22.5220;-745.84;20.21
22.6002;-738.02;19.82
22.6784;-730.20;19.04
22.7566;-722.38;19.82
22.8348;-714.56;25.28
22.9130;-706.74;20.60
22.9912;-698.92;20.60
23.0694;-691.10;20.99
23.1476;-683.28;20.60
23.2258;-675.46;20.60
23.3040;-667.64;20.60
23.3822;-659.82;21.38
23.4604;-652.00;21.38
23.5386;-644.18;20.99
23.6168;-636.36;21.38
23.6950;-628.54;20.99
23.7732;-620.72;21.38
23.8514;-612.90;20.99
23.9296;-605.08;21.38
24.0078;-597.26;21.77
24.0860;-589.44;21.77
24.1642;-581.62;22.16
24.2424;-573.80;21.38
24.3206;-565.98;22.94
24.3988;-558.16;27.62
24.4770;-550.34;28.79
24.5552;-542.52;22.94
24.6334;-534.70;23.72
24.7116;-526.88;23.72
24.7898;-519.06;24.50
24.8680;-511.24;24.50
24.9462;-503.42;25.28
25.0244;-495.60;31.13
25.1026;-487.78;25.67
25.1808;-479.96;30.74
25.2590;-472.14;26.45
25.3372;-464.32;26.45
25.4154;-456.50;26.45
25.4936;-448.68;31.91
25.5718;-440.86;27.23
25.6500;-433.04;27.23
25.7282;-425.22;26.84
25.8064;-417.39;31.91
25.8846;-409.57;29.57
25.9628;-401.75;31.91
26.0410;-393.93;27.23
26.1192;-386.11;26.84
26.1974;-378.29;31.91
26.2756;-370.47;26.06
26.3538;-362.65;26.45
26.4320;-354.83;26.45
26.5102;-347.01;31.13
26.5884;-339.19;25.67
26.6666;-331.37;25.67
26.7448;-323.55;25.67
26.8230;-315.73;26.06
26.9012;-307.91;25.28
26.9794;-300.09;25.28
27.0576;-292.27;30.35
27.1359;-284.45;24.89
27.2141;-276.63;24.89
27.2923;-268.81;24.89
27.3705;-260.99;24.89
27.4487;-253.17;25.28
27.5269;-245.35;29.96
27.6051;-237.53;29.57
27.6833;-229.71;24.11
27.7615;-221.89;24.50
27.8397;-214.07;24.50
27.9179;-206.25;23.72
27.9961;-198.43;23.72
28.0743;-190.61;28.79
28.1525;-182.79;29.18
28.2307;-174.97;24.11
28.3089;-167.15;28.40
28.3871;-159.33;23.72
28.4653;-151.51;28.79
28.5435;-143.69;22.94
28.6217;-135.87;23.72
28.6999;-128.05;24.11
28.7781;-120.23;28.79
28.8563;-112.41;29.18
28.9345;-104.59;23.72
29.0127;-96.77;28.79
29.0909;-88.95;23.33
29.1691;-81.13;28.79
29.2473;-73.31;28.40
29.3255;-65.49;23.33
29.4037;-57.67;24.11
29.4819;-49.85;23.72
29.5601;-42.03;28.79
29.6383;-34.21;28.79
29.7165;-26.39;29.96
29.7947;-18.57;23.72
29.8729;-10.75;24.11
29.9511;-2.93;24.50
30.0293;4.89;29.18
30.1075;12.71;24.11
30.1857;20.53;29.57
30.2639;28.35;29.96
30.3421;36.17;24.89
30.4203;43.99;30.35
30.4985;51.81;25.67
30.5767;59.63;31.13
30.6549;67.45;31.91
30.7331;75.27;27.23
30.8113;83.09;33.47
30.8895;90.91;35.42
30.9677;98.73;30.35
31.0459;106.55;37.37
31.1241;114.37;39.71
31.2023;122.19;42.05
31.2805;130.01;44.39
31.3587;137.83;46.73
31.4369;145.65;43.61
31.5151;153.48;52.58
31.5933;161.30;48.29
31.6715;169.12;52.19
31.7497;176.94;51.41
31.8279;184.76;52.58
31.9061;192.58;52.19
31.9843;200.40;51.41
32.0625;208.22;51.80
32.1407;216.04;56.48
32.2189;223.86;55.70
32.2971;231.68;54.92
32.3753;239.50;54.53
32.4535;247.32;54.14
32.5317;255.14;53.36
32.6099;262.96;47.90
32.6881;270.78;52.97
32.7663;278.60;52.58
32.8445;286.42;52.19
32.9227;294.24;47.12
33.0009;302.06;51.80
33.0792;309.88;46.34
33.1574;317.70;46.34
33.2356;325.52;46.34
33.3138;333.34;50.63
33.3920;341.16;48.29
33.4702;348.98;45.95
33.5484;356.80;51.02
33.6266;364.62;51.80
33.7048;372.44;50.63
33.7830;380.26;52.19
33.8612;388.08;51.80
33.9394;395.90;51.41
34.0176;403.72;52.58
34.0958;411.54;52.19
34.1740;419.36;51.80
34.2522;427.18;52.97
34.3304;435.00;52.97
34.4086;442.82;52.97
34.4868;450.64;53.36
34.5650;458.46;53.36
34.6432;466.28;54.53
34.7214;474.10;54.53
34.7996;481.92;54.53
34.8778;489.74;49.85
34.9560;497.56;55.70
35.0342;505.38;56.09
35.1124;513.20;55.70
35.1906;521.02;53.36
35.2688;528.84;57.26
35.3470;536.66;57.65
35.4252;544.48;58.43
35.5034;552.30;58.43
35.5816;560.12;53.75
35.6598;567.94;59.21
35.7380;575.76;60.38
35.8162;583.58;59.60
35.8944;591.40;59.99
35.9726;599.22;59.99
36.0508;607.04;60.77
36.1290;614.86;60.38
36.2072;622.68;60.77
36.2854;630.50;60.77
36.3636;638.32;59.21
36.4418;646.14;61.16
36.5200;653.96;61.16
36.5982;661.78;62.33
36.6764;669.60;62.33
36.7546;677.42;62.72
36.8328;685.24;62.72
36.9110;693.06;62.72
36.9892;700.88;59.99
37.0674;708.70;63.11
37.1456;716.52;63.50
37.2238;724.35;63.89
37.3020;732.17;64.28
37.3802;739.99;64.28
37.4584;747.81;65.06
37.5366;755.63;65.06
37.6148;763.45;65.45
37.6930;771.27;60.77
37.7712;779.09;65.45
37.8494;786.91;65.84
37.9276;794.73;65.84
38.0058;802.55;66.23
38.0840;810.37;65.84
38.1622;818.19;66.62
38.2404;826.01;61.16
38.3186;833.83;65.84
38.3968;841.65;67.01
38.4750;849.47;67.40
38.5532;857.29;67.79
38.6314;865.11;67.40
38.7096;872.93;67.79
38.7878;880.75;62.33
38.8660;888.57;67.40
38.9442;896.39;67.79
39.0224;904.21;68.57
39.1007;912.03;68.57
39.1789;919.85;68.96
39.2571;927.67;69.35
39.3353;935.49;70.91
39.4135;943.31;69.74
39.4917;951.13;70.52
39.5699;958.95;70.13
39.6481;966.77;70.91
39.7263;974.59;71.69
39.8045;982.41;72.08
39.8827;990.23;72.08
39.9609;998.05;72.47
40.0391;1005.87;72.47
40.1173;1000.00;72.08
40.1955;992.18;68.96
40.2737;984.36;66.23
40.3519;976.54;63.89
40.4301;968.72;61.94
40.5083;960.90;60.38
40.5865;953.08;58.43
40.6647;945.26;56.87
40.7429;937.44;55.70
40.8211;929.62;54.92
40.8993;921.80;53.36
40.9775;913.98;52.58
41.0557;906.16;51.41
41.1339;898.34;51.02
41.2121;890.52;50.24
41.2903;882.70;49.46
41.3685;874.88;49.07
41.4467;867.06;48.68
41.5249;859.24;47.12
41.6031;851.42;47.12
41.6813;843.60;45.95
41.7595;835.78;40.88
41.8377;827.96;45.56
41.9159;820.14;44.39
41.9941;812.32;44.39
42.0723;804.50;43.61
42.1505;796.68;43.22
42.2287;788.86;38.15
42.3069;781.04;42.83
42.3851;773.22;42.44
42.4633;765.40;41.66
42.5415;757.58;41.27
42.6197;749.76;41.27
42.6979;741.94;40.88
42.7761;734.12;40.88
42.8543;726.30;35.42
42.9325;718.48;33.86
43.0107;710.66;39.71
43.0889;702.84;39.32
43.1671;695.02;40.49
43.2453;687.20;38.93
43.3235;679.38;38.54
43.4017;671.56;38.54
43.4799;663.74;38.15
43.5581;655.92;38.15
43.6363;648.10;36.98
43.7145;640.28;36.98
43.7927;632.46;31.91
43.8709;624.64;36.98
43.9491;616.82;36.20
44.0273;609.00;36.59
44.1055;601.18;35.81
44.1837;593.36;32.30
44.2619;585.54;35.81
44.3401;577.72;35.03
44.4183;569.90;35.03
44.4965;562.08;35.03
44.5747;554.26;33.86
44.6529;546.44;34.25
44.7311;538.62;27.62
44.8093;530.80;34.25
44.8875;522.98;33.47
44.9657;515.16;28.40
45.0439;507.34;28.01
45.1222;499.52;33.08
45.2004;491.70;32.69
45.2786;483.88;32.69
45.3568;476.06;32.30
45.4350;468.24;31.91
45.5132;460.42;31.52
45.5914;452.60;31.91
45.6696;444.78;27.23
45.7478;436.96;30.35
45.8260;429.13;31.52
45.9042;421.31;31.52
45.9824;413.49;30.74
46.0606;405.67;25.28
46.1388;397.85;31.13
46.2170;390.03;30.74
46.2952;382.21;30.74
46.3734;374.39;31.13
46.4516;366.57;30.74
46.5298;358.75;24.89
46.6080;350.93;24.89
46.6862;343.11;24.89
46.7644;335.29;29.18
46.8426;327.47;29.96
46.9208;319.65;29.57
46.9990;311.83;29.18
47.0772;304.01;28.79
47.1554;296.19;23.33
47.2336;288.37;28.79
47.3118;280.55;28.79
47.3900;272.73;28.01
47.4682;264.91;27.62
47.5464;257.09;22.55
47.6246;249.27;22.55
47.7028;241.45;21.38
47.7810;233.63;20.99
47.8592;225.81;19.82
47.9374;217.99;20.60
48.0156;210.17;25.28
48.0938;202.35;18.65
48.1720;194.53;24.11
48.2502;186.71;22.55
48.3284;178.89;15.53
48.4066;171.07;20.99
48.4848;163.25;11.63
48.5630;155.43;10.07
48.6412;147.61;8.51
48.7194;139.79;6.17
48.7976;131.97;9.29
48.8758;124.15;2.27
48.9540;116.33;6.17
49.0322;108.51;6.17
49.1104;100.69;-1.24
49.1886;92.87;5.00
49.2668;85.05;5.00
49.3450;77.23;5.78
49.4232;69.41;6.17
49.5014;61.59;1.88
49.5796;53.77;1.49
49.6578;45.95;6.95
49.7360;38.13;4.22
49.8142;30.31;5.00
49.8924;22.49;5.78
49.9706;14.67;4.61
50.0488;6.85;11.24
50.1270;-0.97;7.34
50.2052;-8.79;7.34
50.2834;-16.61;13.58
50.3616;-24.43;13.19
50.4398;-32.25;9.29
50.5180;-40.07;14.36
50.5962;-47.89;15.14
50.6744;-55.71;15.14
50.7526;-63.53;10.07
50.8308;-71.35;10.46
50.9090;-79.17;15.92
50.9872;-86.99;15.53
51.0654;-94.81;16.70
51.1436;-102.63;11.63
51.2219;-110.45;12.02
51.3001;-118.27;15.14
51.3783;-126.09;12.41
51.4565;-133.91;13.19
51.5347;-141.74;17.87
51.6129;-149.56;17.87
51.6911;-157.38;13.19
51.7693;-165.20;13.19
51.8475;-173.02;13.19
51.9257;-180.84;19.04
52.0039;-188.66;19.82
52.0821;-196.48;13.58
52.1603;-204.30;14.75
52.2385;-212.12;17.09
52.3167;-219.94;14.36
52.3949;-227.76;14.75
52.4731;-235.58;20.21
52.5513;-243.40;15.14
52.6295;-251.22;20.21
52.7077;-259.04;20.60
52.7859;-266.86;15.14
52.8641;-274.68;15.53
52.9423;-282.50;20.21
53.0205;-290.32;15.14
53.0987;-298.14;15.14
53.1769;-305.96;15.53
53.2551;-313.78;20.60
53.3333;-321.60;15.92
53.4115;-329.42;15.53
53.4897;-337.24;15.53
53.5679;-345.06;19.82
53.6461;-352.88;15.53
53.7243;-360.70;15.92
53.8025;-368.52;19.82
53.8807;-376.34;15.14
53.9589;-384.16;20.60
54.0371;-391.98;20.21
54.1153;-399.80;15.92
54.1935;-407.62;15.92
54.2717;-415.44;15.92
54.3499;-423.26;20.60
54.4281;-431.08;15.14
54.5063;-438.90;15.14
54.5845;-446.72;15.53
54.6627;-454.54;15.14
54.7409;-462.36;15.14
54.8191;-470.18;14.75
54.8973;-478.00;20.99
54.9755;-485.82;19.82
55.0537;-493.64;14.36
55.1319;-501.46;14.36
55.2101;-509.28;15.14
55.2883;-517.10;14.75
55.3665;-524.92;14.36
55.4447;-532.74;20.21
55.5229;-540.56;13.19
55.6011;-548.38;13.58
55.6793;-556.20;13.58
55.7575;-564.02;17.87
55.8357;-571.84;18.26
55.9139;-579.66;13.19
55.9921;-587.48;19.43
56.0703;-595.30;12.80
56.1485;-603.12;12.80
56.2267;-610.94;12.02
56.3049;-618.76;12.41
56.3831;-626.58;12.41
56.4613;-634.40;12.80
56.5395;-642.22;19.04
56.6177;-650.04;12.41
56.6959;-657.86;13.19
56.7741;-665.68;13.19
56.8523;-673.50;12.80
56.9305;-681.32;12.80
57.0087;-689.14;13.19
57.0869;-696.96;13.19
57.1651;-704.79;12.80
57.2434;-712.61;12.80
57.3216;-720.43;12.80
57.3998;-728.25;13.58
57.4780;-736.07;12.02
57.5562;-743.89;17.87
57.6344;-751.71;13.58
57.7126;-759.53;12.80
57.7908;-767.35;12.80
57.8690;-775.17;13.58
57.9472;-782.99;13.58
58.0254;-790.81;13.19
58.1036;-798.63;13.58
58.1818;-806.45;13.19
58.2600;-814.27;13.19
58.3382;-822.09;13.58
58.4164;-829.91;14.36
58.4946;-837.73;13.97
58.5728;-845.55;16.31
58.6510;-853.37;14.36
58.7292;-861.19;14.36
58.8074;-869.01;13.58
58.8856;-876.83;14.36
58.9638;-884.65;13.58
59.0420;-892.47;13.97
59.1202;-900.29;13.97
59.1984;-908.11;13.58
59.2766;-915.93;13.19
59.3548;-923.75;13.97
59.4330;-931.57;14.36
59.5112;-939.39;13.58
59.5894;-947.21;13.58
59.6676;-955.03;13.19
59.7458;-962.85;11.63
59.8240;-970.67;13.58
59.9022;-978.49;14.36
59.9804;-986.31;13.97
60.0586;-994.13;13.19
60.1368;-988.26;13.58
60.2150;-980.44;14.36
60.2932;-972.62;15.92
60.3714;-964.80;15.53
60.4496;-956.98;16.31
60.5278;-949.16;17.09
60.6060;-941.34;17.09
60.6842;-933.52;17.48
60.7624;-925.70;17.48
60.8406;-917.88;18.26
60.9188;-910.06;19.43
60.9970;-902.24;19.04
61.0752;-894.42;19.04
61.1534;-886.60;19.82
61.2316;-878.78;19.43
61.3098;-870.96;19.43
61.3880;-863.14;19.43
61.4662;-855.32;19.82
61.5444;-847.50;20.60
61.6226;-839.68;24.11
61.7008;-831.86;20.21
61.7790;-824.04;19.82
61.8572;-816.22;20.21
61.9354;-808.40;20.21
62.0136;-800.58;21.77
62.0918;-792.76;20.21
62.1700;-784.94;20.99
62.2482;-777.12;20.21
62.3264;-769.30;21.38
62.4046;-761.48;20.99
62.4828;-753.66;21.38
62.5610;-745.84;22.55
62.6392;-738.02;20.60
62.7174;-730.20;20.99
62.7956;-722.38;25.67
62.8738;-714.56;20.99
62.9520;-706.74;21.38
63.0302;-698.92;21.77
63.1084;-691.10;23.33
63.1866;-683.28;21.77
63.2649;-675.46;22.16
63.3431;-667.64;21.77
63.4213;-659.82;26.84
63.4995;-652.00;21.77
63.5777;-644.18;22.94
63.6559;-636.36;22.55
63.7341;-628.54;22.55
63.8123;-620.72;22.55
63.8905;-612.90;21.77
63.9687;-605.08;22.94
64.0469;-597.26;22.55
64.1251;-589.44;22.55
64.2033;-581.62;26.06
64.2815;-573.80;22.94
64.3597;-565.98;23.33
64.4380;-558.16;24.11
64.5162;-550.34;29.57
64.5944;-542.52;24.11
64.6726;-534.70;28.01
64.7508;-526.88;29.96
64.8290;-519.06;24.89
64.9073;-511.24;25.28
64.9855;-503.42;30.35
65.0637;-495.60;25.67
65.1419;-487.78;31.13
65.2201;-479.96;26.45
65.2983;-472.14;26.45
65.3766;-464.32;26.45
65.4548;-456.50;31.52
65.5330;-448.68;26.84
65.6112;-440.86;27.62
65.6894;-433.04;26.84
65.7676;-425.22;31.52
65.8459;-417.39;26.84
65.9241;-409.57;26.84
66.0023;-401.75;26.45
66.0805;-393.93;26.84
66.1587;-386.11;31.91
66.2369;-378.29;27.23
66.3152;-370.47;26.45
66.3934;-362.65;26.84
66.4716;-354.83;26.06
66.5498;-347.01;26.45
66.6280;-339.19;31.91
66.7062;-331.37;26.45
66.7845;-323.55;31.13
66.8627;-315.73;25.67
66.9409;-307.91;26.45
67.0191;-300.09;26.45
67.0973;-292.27;31.52
67.1755;-284.45;25.67
67.2538;-276.63;26.45
67.3320;-268.81;31.52
67.4102;-260.99;26.06
67.4884;-253.17;26.06
67.5666;-245.35;26.06
67.6448;-237.53;25.67
67.7231;-229.71;30.74
67.8013;-221.89;25.28
67.8795;-214.07;24.89
67.9577;-206.25;24.50
68.0359;-198.43;25.67
68.1141;-190.61;30.74
68.1924;-182.79;29.96
68.2706;-174.97;25.67
68.3488;-167.15;26.84
68.4270;-159.33;24.89
68.5052;-151.51;30.74
68.5834;-143.69;24.50
68.6617;-135.87;24.89
68.7399;-128.05;24.50
68.8181;-120.23;24.89
68.8963;-112.41;30.74
68.9745;-104.59;29.57
69.0527;-96.77;25.67
69.1310;-88.95;24.50
69.2092;-81.13;24.11
69.2874;-73.31;24.11
69.3656;-65.49;23.72
69.4438;-57.67;24.89
69.5220;-49.85;23.72
69.6003;-42.03;29.57
69.6785;-34.21;29.18
69.7567;-26.39;29.57
69.8349;-18.57;29.18
69.9131;-10.75;24.50
69.9913;-2.93;23.72
70.0696;4.89;29.57
70.1478;12.71;30.35
70.2260;20.53;25.28
70.3042;28.35;31.13
70.3824;36.17;25.28
70.4606;43.99;26.06
70.5389;51.81;31.52
70.6171;59.63;31.52
70.6953;67.45;32.30
70.7735;75.27;28.01
70.8517;83.09;33.86
70.9299;90.91;32.69
71.0082;98.73;36.98
71.0864;106.55;33.86
71.1646;114.37;40.49
71.2428;122.19;37.76
71.3210;130.01;40.10
71.3992;137.83;44.00
71.4775;145.65;49.46
71.5557;153.48;54.14
71.6339;161.30;54.53
71.7121;169.12;51.02
71.7903;176.94;54.14
71.8685;184.76;50.63
71.9468;192.58;55.31
72.0250;200.40;56.48
72.1032;208.22;55.70
72.1814;216.04;55.70
72.2596;223.86;55.70
72.3378;231.68;54.92
72.4160;239.50;54.53
72.4943;247.32;54.14
72.5725;255.14;53.75
72.6507;262.96;47.51
72.7289;270.78;47.90
72.8071;278.60;47.90
72.8853;286.42;52.19
72.9636;294.24;46.34
73.0418;302.06;47.12
73.1200;309.88;51.41
73.1982;317.70;51.80
73.2764;325.52;51.80
73.3546;333.34;51.80
73.4329;341.16;52.19
73.5111;348.98;51.41
73.5893;356.80;51.02
73.6675;364.62;52.97
73.7457;372.44;47.12
73.8239;380.26;51.80
73.9022;388.08;47.51
73.9804;395.90;47.90
74.0586;403.72;47.90
74.1368;411.54;48.68
74.2150;419.36;54.14
74.2932;427.18;54.14
74.3715;435.00;54.14
74.4497;442.82;49.46
74.5279;450.64;53.75
74.6061;458.46;56.09
74.6843;466.28;56.09
74.7625;474.10;56.48
74.8408;481.92;56.87
74.9190;489.74;57.65
74.9972;497.56;57.65
75.0754;505.38;58.82
75.1536;513.20;58.43
75.2318;521.02;59.21
75.3101;528.84;54.14
75.3883;536.66;59.60
75.4665;544.48;59.99
75.5447;552.30;60.38
75.6229;560.12;61.16
75.7011;567.94;61.16
75.7794;575.76;61.94
75.8576;583.58;61.94
75.9358;591.40;61.94
76.0140;599.22;61.94
76.0922;607.04;62.33
76.1704;614.86;62.33
76.2487;622.68;61.94
76.3269;630.50;63.11
76.4051;638.32;57.65
76.4833;646.14;63.50
76.5615;653.96;63.50
76.6397;661.78;64.28
76.7180;669.60;64.28
76.7962;677.42;63.89
76.8744;685.24;64.28
76.9526;693.06;64.28
77.0308;700.88;65.06
77.1090;708.70;65.45
77.1873;716.52;65.06
77.2655;724.35;65.84
77.3437;732.17;65.06
77.4219;739.99;65.84
77.5001;747.81;66.23
77.5783;755.63;65.84
77.6566;763.45;67.01
77.7348;771.27;67.01
77.8130;779.09;66.62
77.8912;786.91;67.01
77.9694;794.73;66.62
78.0476;802.55;66.23
78.1259;810.37;67.40
78.2041;818.19;67.79
78.2823;826.01;67.79
78.3605;833.83;68.18
78.4387;841.65;67.40
78.5169;849.47;67.40
78.5952;857.29;68.18
78.6734;865.11;68.57
78.7516;872.93;68.57
78.8298;880.75;68.57
78.9080;888.57;68.96
78.9862;896.39;68.96
79.0645;904.21;68.96
79.1427;912.03;68.57
79.2209;919.85;69.35
79.2991;927.67;70.13
79.3773;935.49;70.52
79.4555;943.31;70.13
79.5338;951.13;70.13
79.6120;958.95;71.30
79.6902;966.77;72.08
79.7684;974.59;72.08
79.8466;982.41;72.47
79.9248;990.23;70.91
80.0031;998.05;74.03
80.0813;1005.87;73.64
80.1595;1000.00;72.86
80.2377;992.18;69.35
80.3159;984.36;66.62
80.3941;976.54;63.89
80.4724;968.72;62.33
80.5506;960.90;60.38
80.6288;953.08;59.21
80.7070;945.26;56.87
80.7852;937.44;56.48
80.8634;929.62;54.92
80.9417;921.80;54.14
81.0199;913.98;52.97
81.0981;906.16;52.19
81.1763;898.34;49.07
81.2545;890.52;50.24
81.3327;882.70;49.07
81.4110;874.88;49.07
81.4892;867.06;48.29
81.5674;859.24;47.90
81.6456;851.42;41.27
81.7238;843.60;45.95
81.8020;835.78;46.34
81.8803;827.96;44.78
81.9585;820.14;44.39
82.0367;812.32;44.78
82.1149;804.50;42.83
82.1931;796.68;38.15
82.2713;788.86;43.22
82.3496;781.04;43.22
82.4278;773.22;42.05
82.5060;765.40;42.44
82.5842;757.58;41.66
82.6624;749.76;38.54
82.7406;741.94;40.88
82.8189;734.12;41.27
82.8971;726.30;40.10
82.9753;718.48;40.49
83.0535;710.66;39.32
83.1317;702.84;40.10
83.2099;695.02;39.32
83.2882;687.20;39.32
83.3664;679.38;38.93
83.4446;671.56;38.15
83.5228;663.74;31.91
83.6010;655.92;37.76
83.6792;648.10;38.54
83.7574;640.28;32.30
83.8357;632.46;36.98
83.9139;624.64;36.59
83.9921;616.82;36.59
84.0703;609.00;35.81
84.1485;601.18;35.42
84.2267;593.36;35.42
84.3050;585.54;35.42
84.3832;577.72;35.03
84.4614;569.90;29.96
84.5396;562.08;34.25
84.6178;554.26;34.25
84.6960;546.44;33.86
84.7743;538.62;33.47
84.8525;530.80;33.47
84.9307;522.98;33.86
85.0089;515.16;28.79
85.0871;507.34;32.69
85.1653;499.52;32.69
85.2436;491.70;32.30
85.3218;483.88;32.69
85.4000;476.06;31.91
85.4782;468.24;31.52
85.5564;460.42;31.52
85.6346;452.60;31.91
85.7129;444.78;31.91
85.7911;436.96;31.52
85.8693;429.13;26.06
85.9475;421.31;29.57
86.0257;413.49;30.74
86.1039;405.67;31.13
86.1822;397.85;31.13
86.2604;390.03;30.74
86.3386;382.21;25.67
86.4168;374.39;25.28
86.4950;366.57;24.50
86.5732;358.75;25.28
86.6515;350.93;30.35
86.7297;343.11;29.96
86.8079;335.29;30.35
86.8861;327.47;30.35
86.9643;319.65;24.50
87.0425;311.83;23.72
87.1208;304.01;24.50
87.1990;296.19;23.33
87.2772;288.37;28.40
87.3554;280.55;28.79
87.4336;272.73;29.18
87.5118;264.91;27.62
87.5901;257.09;27.62
87.6683;249.27;27.62
87.7465;241.45;26.06
87.8247;233.63;27.23
87.9029;225.81;26.06
87.9811;217.99;26.06
88.0594;210.17;26.45
88.1376;202.35;24.11
88.2158;194.53;19.04
88.2940;186.71;17.09
88.3722;178.89;21.77
88.4504;171.07;20.21
88.5287;163.25;12.80
88.6069;155.43;11.24
88.6851;147.61;10.85
88.7633;139.79;8.12
88.8415;131.97;3.83
88.9197;124.15;8.12
88.9980;116.33;7.73
89.0762;108.51;0.32
89.1544;100.69;5.39
89.2326;92.87;-0.46
89.3108;85.05;5.39
89.3890;77.23;4.61
89.4673;69.41;5.78
89.5455;61.59;1.88
89.6237;53.77;2.27
89.7019;45.95;8.12
89.7801;38.13;3.44
89.8583;30.31;9.29
89.9366;22.49;10.46
90.0148;14.67;5.78
90.0930;6.85;11.63
90.1712;-0.97;6.95
90.2494;-8.79;11.24
90.3276;-16.61;7.34
90.4059;-24.43;13.19
90.4841;-32.25;13.58
90.5623;-40.07;13.97
90.6405;-47.89;15.14
90.7187;-55.71;12.41
90.7969;-63.53;10.07
90.8752;-71.35;15.14
90.9534;-79.17;15.53
91.0316;-86.99;16.31
91.1098;-94.81;16.31
91.1880;-102.63;13.19
91.2662;-110.45;16.31
91.3445;-118.27;12.02
91.4227;-126.09;16.70
91.5009;-133.91;17.87
91.5791;-141.74;17.09
91.6573;-149.56;18.65
91.7355;-157.38;12.80
91.8138;-165.20;13.19
91.8920;-173.02;18.65
91.9702;-180.84;19.04
92.0484;-188.66;19.04
92.1266;-196.48;13.97
92.2048;-204.30;13.58
92.2831;-212.12;15.53
92.3613;-219.94;19.43
92.4395;-227.76;19.43
92.5177;-235.58;15.53
92.5959;-243.40;15.14
92.6741;-251.22;19.43
92.7524;-259.04;20.60
92.8306;-266.86;20.21
92.9088;-274.68;15.14
92.9870;-282.50;15.14
93.0652;-290.32;15.53
93.1434;-298.14;15.53
93.2217;-305.96;15.53
93.2999;-313.78;15.53
93.3781;-321.60;15.92
93.4563;-329.42;15.92
93.5345;-337.24;16.31
93.6127;-345.06;20.99
93.6910;-352.88;15.92
93.7692;-360.70;16.31
93.8474;-368.52;20.99
93.9256;-376.34;20.99
94.0038;-384.16;15.92
94.0820;-391.98;16.31
94.1603;-399.80;15.92
94.2385;-407.62;15.53
94.3167;-415.44;15.92
94.3949;-423.26;21.38
94.4731;-431.08;21.38
94.5513;-438.90;15.53
94.6296;-446.72;15.92
94.7078;-454.54;20.60
94.7860;-462.36;15.53
94.8642;-470.18;14.75
94.9424;-478.00;20.99
95.0206;-485.82;20.21
95.0988;-493.64;14.36
95.1771;-501.46;15.14
95.2553;-509.28;14.36
95.3335;-517.10;15.14
95.4117;-524.92;14.75
95.4899;-532.74;20.99
95.5681;-540.56;15.53
95.6464;-548.38;14.36
95.7246;-556.20;18.65
95.8028;-564.02;13.97
95.8810;-571.84;13.97
95.9592;-579.66;13.19
96.0374;-587.48;13.19
96.1157;-595.30;13.19
96.1939;-603.12;13.19
96.2721;-610.94;17.87
96.3503;-618.76;13.97
96.4285;-626.58;13.19
96.5067;-634.40;13.19
96.5850;-642.22;19.04
96.6632;-650.04;13.58
96.7414;-657.86;12.80
96.8196;-665.68;17.09
96.8978;-673.50;18.26
96.9760;-681.32;13.19
97.0543;-689.14;13.19
97.1325;-696.96;13.19
97.2107;-704.79;13.58
97.2889;-712.61;13.19
97.3671;-720.43;13.19
97.4453;-728.25;12.80
97.5236;-736.07;13.58
97.6018;-743.89;13.19
97.6800;-751.71;13.97
97.7582;-759.53;13.58
97.8364;-767.35;13.19
97.9146;-775.17;13.19
97.9929;-782.99;13.58
98.0711;-790.81;18.26
98.1493;-798.63;13.97
98.2275;-806.45;13.97
98.3057;-814.27;13.97
98.3839;-822.09;13.97
98.4622;-829.91;14.36
98.5404;-837.73;13.58
98.6186;-845.55;14.36
98.6968;-853.37;13.58
98.7750;-861.19;20.21
98.8532;-869.01;13.58
98.9315;-876.83;14.36
99.0097;-884.65;13.58
99.0879;-892.47;14.36
99.1661;-900.29;13.97
99.2443;-908.11;14.75
99.3225;-915.93;13.58
99.4008;-923.75;14.36
99.4790;-931.57;13.97
99.5572;-939.39;14.36
99.6354;-947.21;13.97
99.7136;-955.03;13.97
99.7918;-962.85;14.75
99.8701;-970.67;13.58
99.9483;-978.49;13.58
100.0265;-986.31;13.97
100.1047;-994.13;13.58
100.1829;-988.26;14.75
100.2611;-980.44;15.14
100.3394;-972.62;15.53
100.4176;-964.80;16.70
100.4958;-956.98;17.09
100.5740;-949.16;17.09
100.6522;-941.34;17.87
100.7304;-933.52;17.87
100.8087;-925.70;18.26
100.8869;-917.88;18.65
100.9651;-910.06;18.26
101.0433;-902.24;18.65
101.1215;-894.42;19.43
101.1997;-886.60;18.26
101.2780;-878.78;19.43
101.3562;-870.96;19.43
101.4344;-863.14;24.50
101.5126;-855.32;20.21
101.5908;-847.50;19.82
101.6690;-839.68;19.82
101.7473;-831.86;19.82
101.8255;-824.04;19.82
101.9037;-816.22;20.60
101.9819;-808.40;20.60
102.0601;-800.58;25.28
102.1383;-792.76;20.60
102.2166;-784.94;26.45
102.2948;-777.12;20.99
102.3730;-769.30;20.60
102.4512;-761.48;20.99
102.5294;-753.66;21.38
102.6076;-745.84;20.99
102.6859;-738.02;26.06
102.7641;-730.20;21.38
102.8423;-722.38;21.77
102.9205;-714.56;21.77
102.9987;-706.74;24.89
103.0769;-698.92;20.99
103.1552;-691.10;21.77
103.2334;-683.28;21.38
103.3116;-675.46;21.77
103.3898;-667.64;27.62
103.4680;-659.82;22.16
103.5462;-652.00;22.55
103.6245;-644.18;27.23
103.7027;-636.36;22.94
103.7809;-628.54;22.16
103.8591;-620.72;22.16
103.9373;-612.90;22.94
104.0155;-605.08;27.62
104.0938;-597.26;23.33
104.1720;-589.44;22.94
104.2502;-581.62;22.94
104.3284;-573.80;22.94
104.4066;-565.98;29.18
104.4848;-558.16;26.45
104.5631;-550.34;26.84
104.6413;-542.52;24.50
104.7195;-534.70;24.50
104.7977;-526.88;25.28
104.8759;-519.06;25.67
104.9541;-511.24;31.13
105.0324;-503.42;26.06
105.1106;-495.60;26.06
105.1888;-487.78;26.06
105.2670;-479.96;30.74
105.3452;-472.14;26.84
105.4234;-464.32;26.45
105.5017;-456.50;31.13
105.5799;-448.68;26.45
105.6581;-440.86;27.23
105.7363;-433.04;32.30
105.8145;-425.22;27.62
105.8927;-417.39;27.23
105.9710;-409.57;27.62
106.0492;-401.75;27.23
106.1274;-393.93;27.23
106.2056;-386.11;32.69
106.2838;-378.29;27.23
106.3620;-370.47;27.62
106.4402;-362.65;26.84
106.5185;-354.83;32.69
106.5967;-347.01;27.62
106.6749;-339.19;26.84
106.7531;-331.37;32.30
106.8313;-323.55;27.23
106.9095;-315.73;32.69
106.9878;-307.91;28.01
107.0660;-300.09;26.06
107.1442;-292.27;26.45
107.2224;-284.45;26.06
107.3006;-276.63;31.91
107.3788;-268.81;26.84
107.4571;-260.99;31.52
107.5353;-253.17;26.45
107.6135;-245.35;26.06
107.6917;-237.53;31.52
107.7699;-229.71;26.45
107.8481;-221.89;26.06
107.9264;-214.07;31.91
108.0046;-206.25;26.45
108.0828;-198.43;31.91
108.1610;-190.61;26.06
108.2392;-182.79;31.13
108.3174;-174.97;26.06
108.3957;-167.15;31.13
108.4739;-159.33;25.28
108.5521;-151.51;25.67
108.6303;-143.69;30.74
108.7085;-135.87;30.74
108.7867;-128.05;24.89
108.8650;-120.23;25.67
108.9432;-112.41;25.28
109.0214;-104.59;25.28
109.0996;-96.77;30.74
109.1778;-88.95;30.35
109.2560;-81.13;30.35
109.3343;-73.31;25.28
109.4125;-65.49;24.89
109.4907;-57.67;24.89
109.5689;-49.85;29.96
109.6471;-42.03;30.35
109.7253;-34.21;24.89
109.8036;-26.39;29.96
109.8818;-18.57;30.74
109.9600;-10.75;30.35
110.0382;-2.93;25.67
110.1164;4.89;27.62
110.1946;12.71;24.89
110.2729;20.53;25.67
110.3511;28.35;26.06
110.4293;36.17;31.13
110.5075;43.99;26.84
110.5857;51.81;25.67
110.6639;59.63;27.23
110.7422;67.45;27.62
110.8204;75.27;28.79
110.8986;83.09;28.79
110.9768;90.91;31.13
111.0550;98.73;36.98
111.1332;106.55;38.15
111.2115;114.37;41.27
111.2897;122.19;44.00
111.3679;130.01;45.95
111.4461;137.83;43.22
111.5243;145.65;52.58
111.6025;153.48;48.68
111.6808;161.30;55.70
111.7590;169.12;51.80
111.8372;176.94;57.26
111.9154;184.76;52.58
111.9936;192.58;54.92
112.0718;200.40;58.04
112.1501;208.22;53.36
112.2283;216.04;56.87
112.3065;223.86;51.41
112.3847;231.68;55.70
112.4629;239.50;54.92
112.5411;247.32;54.14
112.6194;255.14;49.46
112.6976;262.96;54.53
112.7758;270.78;47.51
112.8540;278.60;53.36
112.9322;286.42;48.29
113.0104;294.24;52.58
113.0887;302.06;47.90
113.1669;309.88;52.97
113.2451;317.70;47.90
113.3233;325.52;51.80
113.4015;333.34;52.58
113.4797;341.16;52.58
113.5580;348.98;48.29
113.6362;356.80;52.19
113.7144;364.62;52.58
113.7926;372.44;53.36
113.8708;380.26;52.58
113.9490;388.08;53.36
114.0273;395.90;53.36
114.1055;403.72;49.07
114.1837;411.54;54.14
114.2619;419.36;52.19
114.3401;427.18;49.85
114.4183;435.00;56.09
114.4966;442.82;51.02
114.5748;450.64;56.87
114.6530;458.46;56.87
114.7312;466.28;58.04
114.8094;474.10;58.04
114.8876;481.92;56.48
114.9659;489.74;58.82
115.0441;497.56;59.60
115.1223;505.38;54.53
115.2005;513.20;60.77
115.2787;521.02;60.77
115.3569;528.84;57.26
115.4352;536.66;62.33
115.5134;544.48;61.94
115.5916;552.30;62.72
115.6698;560.12;63.11
115.7480;567.94;63.11
115.8262;575.76;63.89
115.9045;583.58;58.43
115.9827;591.40;63.89
116.0609;599.22;63.89
116.1391;607.04;61.16
116.2173;614.86;64.67
116.2955;622.68;65.45
116.3738;630.50;65.06
116.4520;638.32;65.45
116.5302;646.14;65.06
116.6084;653.96;60.38
116.6866;661.78;65.06
116.7648;669.60;63.50
116.8431;677.42;65.84
116.9213;685.24;66.23
116.9995;693.06;66.62
117.0777;700.88;67.01
117.1559;708.70;67.40
117.2341;716.52;67.40
117.3124;724.35;67.40
117.3906;732.17;67.79
117.4688;739.99;67.79
117.5470;747.81;68.18
117.6252;755.63;68.57
117.7034;763.45;68.57
117.7817;771.27;68.96
117.8599;779.09;68.57
117.9381;786.91;69.35
118.0163;794.73;65.84
118.0945;802.55;69.35
118.1727;810.37;69.35
118.2509;818.19;69.74
118.3292;826.01;68.96
118.4074;833.83;69.74
118.4856;841.65;70.13
118.5638;849.47;70.13
118.6420;857.29;69.35
118.7202;865.11;70.52
118.7985;872.93;70.91
118.8767;880.75;70.91
118.9549;888.57;70.13
119.0331;896.39;70.91
119.1113;904.21;72.86
119.1895;912.03;70.91
119.2678;919.85;67.40
119.3460;927.67;71.69
119.4242;935.49;72.08
119.5024;943.31;72.47
119.5806;951.13;73.25
119.6588;958.95;73.64
119.7371;966.77;73.64
119.8153;974.59;75.20
119.8935;982.41;74.81
119.9717;990.23;75.20
120.0499;998.05;75.20
120.1281;1005.87;75.98

Acquisition complétée
